timestamps,TP9,AF7,AF8,TP10,Right AUX
1642303677.938,-351.562,86.914,-362.793,33.203,48.828
1642303677.942,701.660,86.426,-136.230,1.953,30.273
1642303677.946,551.758,59.570,-174.805,12.695,31.738
1642303677.950,-541.504,38.574,-374.512,46.387,30.762
1642303677.954,-607.910,41.992,-423.828,44.922,20.508
1642303677.958,460.938,45.898,-419.922,4.395,1.465
1642303677.962,729.980,19.043,-565.430,-9.277,3.418
1642303677.965,-292.969,22.949,-796.387,31.738,10.254
1642303677.969,-733.887,77.637,-601.074,58.105,23.438
1642303677.973,187.012,85.938,-264.648,21.484,44.922
1642303677.977,844.727,85.938,-122.070,18.555,50.293
1642303677.981,40.527,54.199,-269.531,22.949,42.969
1642303677.985,-774.902,39.551,-507.324,43.457,30.762
1642303677.989,-145.508,61.035,-427.734,25.391,18.066
1642303677.993,789.062,61.523,-368.652,-2.930,13.672
1642303677.997,346.680,80.566,-268.066,11.230,59.570
1642303678.001,-689.453,58.105,-243.164,34.668,66.895
1642303678.005,-428.711,20.508,-538.086,26.367,-1.465
1642303678.009,641.602,34.180,-777.832,-16.602,-11.719
1642303678.012,599.121,85.449,-559.082,-11.230,25.391
1642303678.016,-467.773,81.543,-271.973,32.227,45.898
1642303678.020,-645.996,39.062,-454.102,35.156,17.090
1642303678.024,395.020,58.594,-452.637,7.324,-1.953
1642303678.028,776.855,79.102,-141.113,8.301,32.227
1642303678.044,-199.219,30.762,-214.355,27.344,13.672
1642303678.048,-763.184,8.301,-517.578,37.598,3.418
1642303678.052,86.426,43.945,-565.918,0.488,20.020
1642303678.056,822.266,85.449,-328.125,0.488,12.695
1642303678.060,110.352,68.359,-233.398,30.273,1.465
1642303678.064,-772.461,-6.836,-622.070,52.246,9.277
1642303678.068,-226.074,5.859,-970.215,22.949,12.695
1642303678.071,782.227,101.074,-547.363,-8.789,18.066
1642303678.075,422.363,82.520,-145.020,14.648,31.738
1642303678.079,-633.301,41.992,-328.125,42.969,41.504
1642303678.083,-485.352,45.898,-413.086,41.016,36.133
1642303678.087,599.121,73.242,-180.176,6.348,34.668
1642303678.089,652.832,58.105,-97.168,-4.395,26.855
1642303678.093,-428.223,18.066,-375.488,29.785,8.301
1642303678.097,-676.758,33.691,-488.770,44.434,27.344
1642303678.101,329.102,63.965,-287.109,21.973,34.180
1642303678.105,783.691,51.270,-152.832,14.160,33.203
1642303678.109,-143.555,7.324,-410.156,13.184,28.809
1642303678.113,-777.344,7.812,-705.566,34.180,17.578
1642303678.116,25.391,37.109,-687.988,20.508,-0.488
1642303678.120,837.891,52.734,-479.492,0.977,5.371
1642303678.124,180.176,-0.488,-728.516,-1.953,-6.836
1642303678.128,-748.535,28.809,-904.297,22.461,-3.418
1642303678.132,-269.531,94.727,-440.430,29.785,25.879
1642303678.134,751.465,62.500,-254.883,3.418,-1.953
1642303678.138,491.211,51.758,-224.121,15.137,22.949
1642303678.142,-585.449,49.805,-206.543,33.203,54.688
1642303678.146,-540.039,62.012,-264.160,16.113,39.062
1642303678.150,531.738,80.078,-179.199,-8.301,49.316
1642303678.154,685.547,55.664,-235.352,-3.906,37.109
1642303678.158,-352.539,26.855,-503.906,47.852,4.883
1642303678.161,-729.492,61.523,-556.152,33.203,10.742
1642303678.165,175.293,64.453,-561.035,-63.965,4.883
1642303678.169,708.984,51.758,-720.703,-93.750,-18.066
1642303678.173,-124.023,109.863,-438.477,-71.777,11.719
1642303678.177,-872.559,102.539,-196.777,-62.988,49.805
1642303678.178,-215.332,105.957,-199.219,-126.953,44.922
1642303678.182,634.766,125.488,-36.133,-194.824,30.762
1642303678.186,72.754,110.352,55.176,-190.430,35.645
1642303678.190,-925.781,83.984,-129.883,-180.664,35.156
1642303678.194,-615.234,86.914,-354.980,-227.051,15.137
1642303678.198,431.152,135.254,-275.391,-277.344,35.156
1642303678.202,264.648,156.250,-115.723,-279.297,62.988
1642303678.205,-788.574,97.656,-304.199,-260.742,3.906
1642303678.209,-838.379,75.195,-780.273,-290.039,-45.898
1642303678.213,198.242,189.941,-516.602,-320.801,20.508
1642303678.217,478.027,214.355,129.395,-308.105,71.289
1642303678.221,-522.949,109.863,-146.484,-284.668,42.969
1642303678.224,-983.887,118.652,-511.230,-263.184,30.273
1642303678.228,-89.355,194.824,-206.543,-282.715,52.734
1642303678.232,578.125,172.363,65.430,-273.926,53.711
1642303678.236,-193.848,133.301,-160.645,-248.535,31.738
1642303678.240,-983.887,122.559,-424.316,-224.121,24.902
1642303678.244,-364.258,125.488,-450.195,-222.168,37.598
1642303678.248,592.285,165.527,-255.371,-220.215,54.688
1642303678.251,133.301,112.793,-355.469,-191.406,25.391
1642303678.255,-894.531,68.359,-826.660,-158.203,-14.160
1642303678.259,-610.352,157.227,-589.844,-154.297,21.973
1642303678.263,476.074,176.270,-176.270,-185.547,38.086
1642303678.267,444.824,146.484,-145.020,-180.176,31.738
1642303678.268,-620.605,125.000,-285.156,-143.066,41.992
1642303678.272,-768.555,119.141,-329.102,-142.578,48.828
1642303678.276,268.555,111.816,-347.656,-166.016,39.551
1642303678.280,634.277,114.746,-377.930,-134.766,41.992
1642303678.284,-321.289,103.516,-342.285,-105.469,49.805
1642303678.288,-870.117,71.289,-535.156,-88.867,26.855
1642303678.292,-16.602,87.402,-620.605,-110.352,10.254
1642303678.295,710.449,95.703,-657.227,-135.254,3.418
1642303678.299,12.695,119.629,-583.496,-92.773,16.113
1642303678.303,-829.102,116.699,-364.258,-51.758,27.344
1642303678.307,-295.898,78.125,-405.273,-66.406,15.137
1642303678.311,689.453,78.125,-316.895,-71.289,15.625
1642303678.314,349.609,71.777,-191.406,-51.758,21.484
1642303678.318,-695.312,46.387,-331.543,-11.719,15.625
1642303678.322,-535.645,44.922,-498.047,-11.230,20.020
1642303678.326,561.523,73.242,-364.746,-24.902,36.133
1642303678.330,614.258,65.430,-104.492,-3.906,65.430
1642303678.334,-461.914,7.324,-343.750,33.203,42.480
1642303678.338,-710.449,-40.527,-769.043,51.270,34.668
1642303678.341,293.945,-25.879,-930.176,17.578,31.738
1642303678.345,773.926,50.781,-545.410,25.391,23.926
1642303678.349,-139.648,27.832,-224.609,59.570,58.594
1642303678.353,-776.855,-18.555,-392.090,75.684,66.406
1642303678.357,29.785,0.488,-411.133,74.219,33.691
1642303678.359,847.168,22.949,-167.480,99.609,36.133
1642303678.363,209.961,-28.320,-191.406,120.605,33.203
1642303678.367,-694.336,-63.477,-483.887,133.301,43.457
1642303678.371,-213.379,-22.949,-439.941,129.883,68.848
1642303678.375,817.383,-10.742,-230.957,109.375,36.133
1642303678.379,555.176,-57.129,-318.848,128.906,40.527
1642303678.383,-523.926,-107.422,-795.898,168.457,20.020
1642303678.386,-440.430,-54.688,-888.672,157.227,-3.418
1642303678.390,667.480,-4.395,-450.195,151.855,31.738
1642303678.394,834.961,-36.621,-273.438,167.969,47.363
1642303678.398,-192.871,-71.777,-474.121,190.918,52.734
1642303678.402,-550.293,-47.363,-493.164,203.613,64.941
1642303678.418,416.992,-22.949,-256.836,159.180,48.340
1642303678.422,966.797,-57.129,-255.859,154.785,31.250
1642303678.426,95.215,-80.078,-529.297,191.895,3.906
1642303678.430,-606.445,-49.316,-544.922,216.309,16.113
1642303678.434,117.676,-26.367,-350.098,188.965,39.062
1642303678.438,976.562,-56.641,-393.066,149.414,47.363
1642303678.442,409.668,-59.082,-571.289,165.527,58.105
1642303678.445,-560.547,-20.020,-493.652,218.262,37.109
1642303678.449,-195.312,-30.762,-442.871,203.125,0.977
1642303678.453,853.027,-6.348,-327.637,170.410,27.832
1642303678.457,690.430,-17.578,-272.949,186.035,24.902
1642303678.461,-389.648,-52.734,-517.090,213.379,-12.207
1642303678.463,-439.941,-30.273,-583.008,208.496,2.930
1642303678.467,621.582,-0.488,-480.469,177.246,9.766
1642303678.471,889.648,20.508,-360.352,180.176,7.812
1642303678.475,-127.930,5.371,-257.324,208.008,25.879
1642303678.479,-597.168,-22.949,-397.461,210.938,26.855
1642303678.483,307.129,-7.812,-498.535,166.016,10.742
1642303678.487,961.914,9.277,-484.863,151.855,3.418
1642303678.490,183.594,18.555,-405.762,177.246,26.367
1642303678.494,-639.648,-5.371,-451.172,186.523,33.203
1642303678.498,-18.555,-26.855,-820.312,151.855,-16.113
1642303678.502,933.594,58.594,-604.980,138.184,0.977
1642303678.506,478.027,56.152,-190.918,159.668,25.879
1642303678.509,-547.363,6.836,-415.039,184.082,15.137
1642303678.513,-300.781,14.160,-586.914,155.762,13.672
1642303678.517,770.020,47.363,-406.738,115.234,15.625
1642303678.521,717.773,67.383,-116.699,126.465,38.086
1642303678.525,-389.160,4.395,-409.668,144.043,13.184
1642303678.529,-552.246,-9.766,-819.336,125.488,-10.254
1642303678.533,489.258,54.688,-639.648,94.238,5.859
1642303678.536,850.098,87.891,-218.262,107.422,34.668
1642303678.540,-142.090,10.742,-470.215,126.953,-1.465
1642303678.544,-708.496,0.000,-909.180,129.395,-19.531
1642303678.548,177.246,85.938,-520.020,83.008,14.160
1642303678.552,919.922,63.477,-139.160,61.523,33.203
1642303678.554,178.711,10.254,-261.719,95.703,21.484
1642303678.558,-676.758,19.043,-416.016,117.188,44.922
1642303678.562,-115.723,47.852,-336.914,93.750,52.734
1642303678.566,851.074,44.922,-208.008,69.336,30.273
1642303678.570,482.422,16.602,-314.453,81.543,20.996
1642303678.574,-556.152,-5.371,-614.258,118.652,32.227
1642303678.578,-397.461,28.320,-634.277,120.117,53.223
1642303678.581,663.574,58.105,-323.730,74.707,44.434
1642303678.585,675.293,0.977,-511.719,51.758,32.715
1642303678.589,-391.602,19.043,-802.734,72.754,20.020
1642303678.593,-609.375,70.312,-553.223,90.820,12.207
1642303678.597,389.160,59.570,-382.812,63.965,20.020
1642303678.599,836.426,59.082,-252.441,56.641,27.832
1642303678.603,-83.984,50.293,-175.293,62.012,50.781
1642303678.607,-719.238,32.715,-289.062,67.871,53.711
1642303678.611,58.594,49.805,-380.859,44.922,26.855
1642303678.615,855.957,75.195,-234.863,35.645,61.523
1642303678.619,221.680,42.969,-322.754,56.152,49.316
1642303678.623,-701.172,30.273,-561.035,86.426,34.668
1642303678.626,-264.648,17.578,-730.957,58.594,19.043
1642303678.630,750.000,40.527,-844.727,20.508,-1.953
1642303678.634,516.113,100.586,-457.031,42.480,31.738
1642303678.638,-551.270,57.617,-287.109,71.777,32.715
1642303678.642,-501.953,42.480,-388.184,68.359,47.363
1642303678.644,571.289,71.289,-229.980,33.203,51.758
1642303678.648,730.957,64.941,-70.312,42.969,31.250
1642303678.652,-329.102,37.598,-187.988,76.660,47.363
1642303678.656,-691.895,35.645,-413.086,71.777,54.688
1642303678.660,280.273,75.195,-355.957,29.785,31.250
1642303678.664,831.543,70.801,-253.906,10.254,35.645
1642303678.668,-45.410,25.391,-437.500,35.156,43.457
1642303678.671,-760.742,-7.812,-863.281,53.223,3.906
1642303678.675,-34.180,66.895,-784.180,25.391,6.836
1642303678.679,859.375,109.375,-170.410,29.297,57.129
1642303678.683,297.852,24.414,-186.035,43.945,57.129
1642303678.687,-704.590,-6.836,-543.457,52.246,33.691
1642303678.689,-325.684,55.664,-457.031,34.668,35.156
1642303678.693,726.074,86.914,-93.750,8.301,77.637
1642303678.697,541.504,39.062,-173.828,21.484,44.434
1642303678.701,-541.016,25.391,-503.906,51.758,17.578
1642303678.705,-565.918,44.434,-459.473,49.316,41.504
1642303678.709,480.957,43.457,-402.832,15.137,28.809
1642303678.713,719.238,22.949,-519.531,18.066,33.203
1642303678.716,-294.434,8.789,-716.797,49.805,44.922
1642303678.720,-730.469,50.781,-595.703,64.453,45.898
1642303678.724,186.523,54.199,-336.426,18.555,31.738
1642303678.728,833.984,59.082,-173.828,4.883,48.828
1642303678.732,35.156,51.270,-175.781,32.715,67.871
1642303678.734,-761.230,34.180,-282.227,51.758,61.035
1642303678.738,-124.023,23.438,-397.949,26.367,39.062
1642303678.742,813.965,27.832,-481.445,15.137,20.020
1642303678.746,368.164,45.898,-452.148,28.809,0.000
1642303678.750,-663.086,25.879,-415.527,53.711,22.461
1642303678.754,-430.176,-2.930,-556.152,52.246,22.461
1642303678.758,633.301,9.277,-785.156,17.090,-2.930
1642303678.761,615.723,60.547,-591.309,18.066,18.066
1642303678.765,-458.984,67.871,-310.547,46.875,39.062
1642303678.769,-635.742,39.062,-365.234,45.410,58.594
1642303678.773,408.203,44.922,-315.430,-1.465,45.410
1642303678.777,781.738,61.035,-190.918,-23.926,19.531
1642303678.794,-195.312,38.574,-288.574,28.320,9.766
1642303678.798,-740.723,25.391,-480.469,65.918,31.738
1642303678.802,121.582,57.617,-426.270,23.438,47.363
1642303678.806,845.215,75.195,-106.934,4.883,62.012
1642303678.810,132.324,42.969,-215.332,24.414,46.387
1642303678.814,-734.375,-12.695,-691.895,53.223,24.902
1642303678.818,-216.309,0.000,-986.816,22.949,7.812
1642303678.821,786.133,101.562,-557.617,-11.230,30.273
1642303678.825,435.059,88.379,-101.562,4.883,61.523
1642303678.829,-636.230,23.438,-344.238,35.156,28.320
1642303678.833,-481.445,24.414,-587.402,18.066,-3.418
1642303678.837,605.957,68.848,-360.352,-5.371,10.254
1642303678.839,670.898,64.941,-152.344,21.973,21.484
1642303678.843,-413.574,25.879,-366.211,39.551,22.949
1642303678.847,-675.293,27.344,-559.570,37.598,5.859
1642303678.851,351.074,60.059,-361.816,23.438,16.602
1642303678.855,821.289,46.387,-139.648,25.391,42.969
1642303678.859,-119.141,1.465,-428.711,45.410,16.602
1642303678.863,-754.395,16.113,-729.492,56.152,16.113
1642303678.866,31.738,60.059,-606.445,19.043,37.598
1642303678.870,816.406,62.012,-373.047,-3.418,7.812
1642303678.874,166.016,-11.719,-701.660,8.301,-37.109
1642303678.878,-737.793,31.738,-909.180,44.434,-16.602
1642303678.882,-263.184,101.562,-411.133,50.781,38.086
1642303678.884,747.559,66.895,-199.219,30.273,23.926
1642303678.888,494.629,59.082,-199.219,23.438,24.902
1642303678.892,-572.754,51.758,-217.285,44.922,46.875
1642303678.896,-523.438,52.246,-276.367,60.547,39.551
1642303678.900,544.922,58.105,-222.656,14.648,42.480
1642303678.904,684.082,27.344,-347.168,-4.395,17.578
1642303678.908,-370.117,12.207,-653.809,25.391,-19.531
1642303678.911,-713.379,52.246,-590.820,37.598,1.953
1642303678.915,242.188,46.875,-534.180,10.742,20.996
1642303678.919,794.434,45.898,-583.008,-9.277,23.438
1642303678.923,-46.875,69.824,-399.414,8.301,37.109
1642303678.927,-761.719,41.016,-401.367,36.621,32.227
1642303678.928,-62.988,45.410,-453.613,17.090,32.227
1642303678.932,812.012,74.219,-252.441,10.254,51.758
1642303678.936,273.438,51.758,-86.426,21.484,44.922
1642303678.940,-719.727,4.883,-344.727,30.762,19.531
1642303678.944,-366.699,8.301,-495.117,29.297,21.973
1642303678.948,684.082,37.598,-395.508,1.953,32.715
1642303678.952,525.391,41.016,-375.000,5.371,33.691
1642303678.955,-553.223,10.742,-512.207,30.273,25.391
1642303678.959,-609.863,-8.789,-860.840,20.508,2.441
1642303678.963,475.098,74.219,-626.953,-0.977,29.785
1642303678.967,754.395,87.891,-78.613,5.859,51.270
1642303678.971,-276.367,18.066,-219.727,38.574,47.852
1642303678.974,-731.934,8.301,-424.316,46.875,51.270
1642303678.978,188.477,38.574,-418.457,20.508,29.297
1642303678.982,847.656,62.988,-215.820,13.672,30.762
1642303678.986,36.133,5.859,-329.102,26.855,22.949
1642303678.990,-778.320,-4.883,-607.422,49.805,27.832
1642303678.994,-136.719,44.922,-486.328,5.859,50.781
1642303678.998,800.293,61.523,-272.949,-6.836,60.059
1642303679.001,332.031,5.859,-407.715,10.742,31.250
1642303679.005,-687.012,-9.277,-740.723,27.832,25.391
1642303679.009,-404.297,64.941,-483.398,36.133,42.969
1642303679.013,670.898,65.918,-161.621,2.930,30.273
1642303679.017,613.770,46.387,-129.395,0.000,48.828
1642303679.019,-472.656,23.926,-268.555,31.738,52.246
1642303679.023,-607.422,25.879,-302.734,36.133,57.617
1642303679.027,427.734,30.762,-213.867,18.066,50.781
1642303679.031,767.578,13.184,-251.465,5.371,20.020
1642303679.035,-200.195,-0.977,-450.684,20.996,28.809
1642303679.039,-757.812,-5.371,-651.367,62.012,29.785
1642303679.043,90.332,14.160,-607.422,37.109,10.254
1642303679.046,816.406,-3.906,-697.266,11.719,-1.465
1642303679.050,112.305,25.391,-768.555,19.531,6.836
1642303679.054,-738.281,72.266,-449.219,39.062,38.086
1642303679.058,-208.984,48.340,-352.539,26.367,29.785
1642303679.062,778.809,69.336,-170.410,-0.488,56.152
1642303679.064,422.363,63.477,-3.418,10.254,63.477
1642303679.068,-625.000,22.949,-225.098,35.645,31.738
1642303679.072,-483.887,18.066,-439.941,26.855,31.250
1642303679.076,593.750,48.828,-337.402,2.441,31.250
1642303679.080,677.246,56.152,-182.617,6.836,20.996
1642303679.084,-415.527,15.137,-430.664,41.016,18.066
1642303679.088,-692.871,-9.766,-809.570,34.668,20.508
1642303679.091,328.125,45.410,-760.742,-13.184,16.602
1642303679.095,799.805,99.121,-277.344,-3.418,43.457
1642303679.099,-120.605,62.500,-80.078,28.320,63.477
1642303679.103,-770.508,-8.301,-477.539,49.805,59.570
1642303679.107,12.207,12.207,-732.910,8.789,41.504
1642303679.108,833.984,95.215,-259.277,-3.418,47.363
1642303679.112,193.848,58.594,-84.961,41.504,53.711
1642303679.116,-726.074,11.230,-399.414,59.570,30.762
1642303679.120,-277.344,39.062,-461.426,31.738,19.043
1642303679.124,735.840,66.406,-198.730,-9.766,30.273
1642303679.128,476.074,25.391,-297.852,-7.324,8.301
1642303679.132,-613.770,-19.531,-852.051,39.062,-28.320
1642303679.135,-544.434,57.617,-802.246,45.410,20.996
1642303679.139,552.734,115.723,-208.496,28.320,56.641
1642303679.143,674.316,46.387,-125.488,19.043,20.508
1642303679.147,-386.230,6.836,-470.215,44.922,12.695
1642303679.151,-707.031,48.340,-509.766,68.359,39.551
1642303679.168,267.090,77.637,-172.852,32.227,62.500
1642303679.172,794.922,44.434,-168.457,15.137,44.922
1642303679.176,-74.219,19.043,-438.477,30.762,32.227
1642303679.180,-775.391,43.457,-417.969,60.059,56.641
1642303679.184,-52.246,54.688,-298.828,43.945,42.969
1642303679.188,806.152,20.508,-423.340,20.020,20.508
1642303679.192,251.953,15.625,-644.043,36.621,23.438
1642303679.195,-696.289,55.176,-476.074,58.105,56.152
1642303679.199,-318.359,44.434,-358.398,51.758,42.969
1642303679.203,703.613,51.270,-291.016,33.691,44.922
1642303679.207,526.367,52.246,-176.270,36.621,74.707
1642303679.211,-547.852,41.016,-151.367,68.848,93.262
1642303679.213,-595.215,11.230,-330.566,48.340,58.594
1642303679.217,452.148,20.508,-546.875,-1.953,12.695
1642303679.221,722.656,75.684,-326.660,1.953,53.223
1642303679.225,-281.250,52.246,-200.195,31.250,54.688
1642303679.229,-741.699,15.137,-443.359,42.969,14.648
1642303679.233,172.363,35.156,-535.645,4.395,18.555
1642303679.237,817.871,60.059,-467.285,2.930,23.438
1642303679.240,20.996,58.105,-450.684,32.715,10.254
1642303679.244,-785.156,25.391,-519.043,39.551,14.160
1642303679.248,-159.180,4.883,-823.242,9.277,-18.066
1642303679.252,793.945,72.266,-757.812,-15.625,-31.250
1642303679.256,347.168,84.961,-325.195,7.324,15.625
1642303679.258,-677.246,30.762,-385.254,55.176,30.273
1642303679.262,-414.551,33.691,-519.531,35.645,7.324
1642303679.266,658.203,76.172,-230.469,-9.766,21.973
1642303679.270,596.191,52.246,-62.988,-5.859,26.855
1642303679.274,-505.371,-14.160,-490.723,22.461,1.465
1642303679.278,-642.090,6.348,-762.695,31.250,23.926
1642303679.282,410.645,67.871,-480.469,15.625,44.434
1642303679.285,773.438,91.797,-111.328,31.738,49.805
1642303679.289,-216.797,18.066,-372.070,37.109,13.672
1642303679.293,-769.531,0.000,-865.234,47.363,-13.672
1642303679.297,108.398,92.773,-479.980,38.574,24.902
1642303679.301,832.031,86.426,-35.645,0.488,48.828
1642303679.304,111.816,46.387,-157.715,4.883,36.621
1642303679.308,-750.000,36.133,-370.117,33.691,31.250
1642303679.312,-205.078,64.941,-282.227,14.648,40.039
1642303679.316,770.508,74.707,-83.984,4.883,58.105
1642303679.320,414.551,29.785,-153.809,33.691,46.875
1642303679.324,-638.184,8.301,-488.281,50.781,26.855
1642303679.328,-498.535,18.066,-701.172,25.391,13.184
1642303679.331,591.797,44.922,-487.305,3.906,12.207
1642303679.335,629.883,4.883,-631.836,2.441,-8.789
1642303679.339,-433.594,24.414,-782.715,30.762,25.879
1642303679.343,-665.039,78.613,-378.418,50.293,62.500
1642303679.347,336.426,60.059,-247.559,7.812,29.785
1642303679.349,796.875,64.941,-199.219,-3.906,16.602
1642303679.353,-127.930,54.688,-230.957,26.855,3.418
1642303679.357,-765.137,40.039,-339.844,56.152,20.508
1642303679.361,35.645,45.898,-346.191,27.344,37.109
1642303679.365,834.961,48.828,-250.000,-14.648,16.602
1642303679.369,168.457,15.625,-341.797,2.930,18.555
1642303679.373,-747.559,9.766,-596.680,40.527,6.836
1642303679.376,-291.504,10.254,-767.578,27.344,-22.949
1642303679.380,714.844,37.109,-712.402,9.277,-3.418
1642303679.384,473.633,67.383,-381.836,20.508,27.344
1642303679.388,-592.285,20.508,-362.793,41.504,41.504
1642303679.392,-550.781,15.137,-537.109,29.297,32.227
1642303679.394,521.973,52.734,-413.086,2.930,17.578
1642303679.398,685.547,57.617,-102.051,6.836,26.367
1642303679.402,-356.934,11.719,-228.516,39.551,21.484
1642303679.406,-697.754,-1.465,-480.469,47.852,13.184
1642303679.410,278.320,35.645,-386.230,0.488,8.789
1642303679.414,804.688,43.945,-263.672,-16.602,10.254
1642303679.418,-77.637,7.812,-432.617,5.859,18.555
1642303679.421,-795.410,-20.508,-840.332,25.391,-5.859
1642303679.425,-67.383,53.711,-761.719,0.977,-6.836
1642303679.429,822.266,88.867,-147.949,-13.184,44.922
1642303679.433,260.254,22.949,-114.258,9.277,48.828
1642303679.437,-710.449,6.836,-323.242,41.992,52.734
1642303679.439,-350.098,22.949,-356.934,28.320,54.199
1642303679.443,692.871,35.645,-309.082,-4.395,12.695
1642303679.447,533.203,18.066,-373.535,0.000,-7.812
1642303679.451,-552.246,1.465,-555.176,44.922,22.949
1642303679.455,-589.355,25.391,-487.793,34.180,50.781
1642303679.459,493.164,37.109,-339.844,-3.418,58.105
1642303679.463,730.469,1.465,-429.199,4.395,37.598
1642303679.466,-313.477,-10.254,-721.680,20.996,24.902
1642303679.470,-729.492,45.898,-538.574,31.250,47.852
1642303679.474,206.543,51.758,-209.473,9.277,54.199
1642303679.478,837.402,42.480,-146.484,1.953,37.598
1642303679.482,38.086,42.480,-206.055,26.367,41.016
1642303679.484,-753.906,34.668,-245.605,42.969,62.012
1642303679.488,-123.047,24.414,-280.273,8.301,39.551
1642303679.492,799.316,28.320,-300.781,-16.602,1.953
1642303679.496,339.355,39.551,-331.055,8.789,29.785
1642303679.500,-660.156,34.180,-401.367,46.387,53.711
1642303679.504,-412.598,23.926,-466.797,36.621,42.969
1642303679.508,618.164,6.348,-678.711,-10.742,21.484
1642303679.511,564.453,23.438,-760.254,-9.277,-11.230
1642303679.515,-488.281,64.453,-491.699,39.062,4.395
1642303679.519,-639.648,47.852,-412.109,39.062,34.668
1642303679.523,398.926,58.105,-292.969,-4.395,43.945
1642303679.527,784.180,65.430,-124.512,-10.254,15.625
1642303679.544,-171.875,37.109,-185.059,19.043,17.578
1642303679.548,-741.211,14.160,-444.336,34.180,14.160
1642303679.552,87.402,42.480,-476.562,23.438,-3.418
1642303679.556,813.965,76.660,-189.453,11.719,14.648
1642303679.560,101.074,64.453,-123.047,14.648,40.039
1642303679.564,-769.043,-12.207,-571.289,32.715,24.414
1642303679.568,-224.609,-4.395,-963.379,1.465,-17.090
1642303679.571,786.621,100.098,-537.598,-15.137,9.766
1642303679.575,435.059,90.820,-126.953,11.719,31.738
1642303679.579,-648.926,20.020,-489.746,46.875,14.160
1642303679.583,-486.328,44.434,-694.336,19.531,18.066
1642303679.587,610.840,98.633,-277.344,-16.113,22.949
1642303679.588,656.250,62.988,-175.781,1.953,-6.348
1642303679.592,-411.133,44.922,-349.121,27.344,22.949
1642303679.596,-663.086,49.805,-402.344,24.902,51.270
1642303679.600,354.492,65.430,-273.926,-8.789,25.879
1642303679.604,798.828,63.965,-141.602,-12.207,26.855
1642303679.608,-146.484,21.484,-364.258,19.531,28.809
1642303679.612,-766.113,23.438,-636.230,37.598,39.062
1642303679.615,35.645,76.172,-508.789,15.137,41.504
1642303679.619,834.473,73.242,-247.559,4.395,18.066
1642303679.623,165.527,-13.672,-652.344,5.371,-8.789
1642303679.627,-749.512,21.973,-921.387,32.227,10.254
1642303679.631,-260.742,89.844,-497.559,16.113,20.996
1642303679.633,753.906,69.824,-219.238,-14.160,34.180
1642303679.637,482.422,46.387,-217.773,-4.883,31.250
1642303679.641,-593.750,36.133,-336.426,13.672,18.066
1642303679.645,-530.762,39.062,-365.234,17.578,22.949
1642303679.649,549.805,48.828,-276.855,2.441,30.273
1642303679.653,708.496,38.574,-272.461,20.020,44.922
1642303679.657,-347.168,27.344,-463.867,40.039,40.039
1642303679.660,-697.754,59.082,-452.148,34.180,50.293
1642303679.664,257.812,45.410,-479.004,4.883,19.043
1642303679.668,794.922,38.574,-618.164,-6.836,-12.695
1642303679.672,-46.387,75.195,-437.500,25.879,15.137
1642303679.676,-753.418,61.035,-419.922,42.969,22.949
1642303679.679,-45.898,62.500,-475.586,-1.465,3.418
1642303679.683,815.430,81.543,-291.016,-13.672,6.348
1642303679.687,263.184,75.195,-95.215,12.207,37.109
1642303679.691,-703.613,35.156,-263.184,39.551,32.227
1642303679.695,-342.773,20.020,-498.535,20.996,33.203
1642303679.699,687.500,45.898,-488.770,-2.441,26.367
1642303679.703,526.367,41.992,-432.617,9.277,-2.441
1642303679.706,-541.504,8.301,-487.305,34.180,23.438
1642303679.710,-596.191,-5.371,-772.949,37.598,25.391
1642303679.714,454.590,67.871,-651.367,-12.695,10.742
1642303679.718,735.840,87.402,-97.168,-15.137,47.363
1642303679.722,-255.371,1.953,-279.785,40.039,9.766
1642303679.723,-708.496,0.977,-560.547,46.875,-8.301
1642303679.727,185.547,63.477,-344.238,21.484,18.555
1642303679.731,824.219,75.195,-48.340,15.625,39.551
1642303679.735,10.742,6.348,-313.965,9.766,26.367
1642303679.739,-787.598,-6.348,-709.961,37.109,-1.953
1642303679.743,-140.137,44.922,-619.141,20.020,5.371
1642303679.747,796.387,66.406,-331.055,12.207,43.457
1642303679.750,333.008,8.301,-474.609,17.578,13.672
1642303679.754,-685.547,1.465,-830.566,25.879,3.418
1642303679.758,-410.156,76.172,-575.684,26.855,17.090
1642303679.762,653.320,86.914,-216.309,2.930,8.301
1642303679.766,584.473,61.523,-123.535,6.348,40.039
1642303679.769,-491.699,30.273,-259.277,22.461,52.734
1642303679.773,-633.789,36.621,-363.770,31.738,28.320
1642303679.777,404.297,56.641,-229.492,8.789,38.574
1642303679.781,767.090,55.176,-116.699,-6.348,60.547
1642303679.785,-200.195,34.180,-237.793,14.648,37.598
1642303679.789,-757.324,18.555,-508.789,30.273,38.574
1642303679.793,95.703,41.992,-535.645,9.766,50.293
1642303679.796,800.781,10.742,-645.508,-5.859,20.996
1642303679.800,82.520,30.273,-696.777,22.461,47.363
1642303679.804,-746.094,67.383,-404.785,56.641,50.781
1642303679.808,-210.449,43.945,-402.344,21.484,13.672
1642303679.812,764.160,67.871,-259.277,-2.441,35.156
1642303679.813,406.250,68.359,-84.961,7.324,42.969
1642303679.817,-646.484,28.809,-236.816,35.645,30.762
1642303679.821,-482.910,25.879,-440.430,31.738,23.926
1642303679.825,604.492,57.129,-333.496,-12.207,35.645
1642303679.829,661.133,47.363,-138.184,-4.395,33.203
1642303679.833,-420.410,13.672,-345.215,43.945,31.738
1642303679.837,-703.125,8.301,-643.555,46.875,43.457
1642303679.840,318.848,49.805,-552.734,2.441,11.230
1642303679.844,796.387,69.336,-202.637,0.488,19.531
1642303679.848,-134.766,39.062,-208.008,29.785,49.316
1642303679.852,-766.113,-9.277,-630.371,46.875,28.809
1642303679.856,10.254,16.113,-878.418,15.625,-0.488
1642303679.859,818.848,102.539,-377.930,12.207,27.344
1642303679.863,193.359,65.918,-83.984,8.789,58.105
1642303679.867,-726.074,21.973,-362.305,9.766,48.340
1642303679.871,-267.578,47.363,-381.348,12.207,34.668
1642303679.875,747.070,56.641,-184.082,-4.395,30.762
1642303679.879,470.215,25.879,-250.000,10.742,34.180
1642303679.883,-604.004,-19.531,-702.637,27.344,42.480
1642303679.886,-526.855,24.414,-796.387,25.879,30.762
1642303679.890,551.758,77.637,-268.555,7.812,24.902
1642303679.894,695.312,27.832,-158.691,-4.395,15.625
1642303679.898,-340.332,-0.488,-374.023,43.457,12.695
1642303679.902,-691.406,21.484,-331.543,49.805,58.105
1642303679.904,248.047,27.344,-235.352,-3.418,54.688
1642303679.908,790.527,8.301,-269.531,-2.441,22.949
1642303679.912,-75.195,-9.277,-395.020,26.855,24.902
1642303679.916,-797.852,7.324,-417.480,35.645,29.785
1642303679.920,-92.773,23.926,-255.859,-25.879,25.879
1642303679.924,758.789,-17.090,-293.457,-30.273,29.297
1642303679.928,196.777,-10.254,-475.098,-5.371,29.785
1642303679.931,-806.152,58.105,-352.539,-24.902,39.062
1642303679.935,-453.613,62.012,-173.828,-53.223,59.570
1642303679.939,572.754,43.457,-193.848,-105.957,37.109
1642303679.943,367.676,50.293,-208.008,-144.043,34.668
1642303679.947,-713.379,50.781,-159.668,-133.789,42.480
1642303679.964,-777.344,41.504,-299.316,-163.086,7.812
1642303679.968,247.070,73.242,-243.164,-228.516,11.230
1642303679.972,474.609,70.312,-106.445,-252.441,34.180
1642303679.976,-521.973,60.059,-235.352,-243.164,28.320
1642303679.980,-986.816,72.266,-297.852,-253.418,14.648
1642303679.984,-137.207,52.734,-487.305,-291.016,8.301
1642303679.988,519.531,104.492,-453.125,-287.109,25.879
1642303679.991,-227.539,148.438,-61.523,-281.738,46.387
1642303679.995,-1000.000,82.031,-225.098,-277.832,17.090
1642303679.999,-432.617,81.055,-407.227,-287.109,7.812
1642303680.003,525.391,144.531,-117.676,-300.781,27.344
1642303680.007,69.336,130.859,33.691,-282.715,17.090
1642303680.008,-927.734,78.613,-287.598,-250.488,-5.371
1642303680.012,-671.387,85.938,-469.727,-260.254,-13.672
1642303680.016,399.414,128.418,-191.406,-282.715,9.277
1642303680.020,363.281,130.859,37.598,-255.371,46.387
1642303680.024,-694.824,90.332,-180.176,-204.102,50.293
1642303680.028,-840.332,80.078,-501.465,-204.590,30.273
1642303680.032,190.918,119.629,-500.488,-221.191,1.953
1642303680.035,560.547,142.090,-297.852,-203.613,23.438
1642303680.039,-396.484,69.824,-502.930,-192.871,16.113
1642303680.043,-943.359,46.875,-980.957,-164.551,-25.879
1642303680.047,-58.594,153.320,-619.629,-164.062,15.137
1642303680.051,690.918,148.438,-73.730,-167.480,37.598
1642303680.054,-58.594,78.125,-150.391,-156.250,32.715
1642303680.058,-909.180,46.875,-349.609,-114.746,34.668
1642303680.062,-333.984,58.594,-284.180,-117.188,39.551
1642303680.066,648.438,58.594,-151.367,-138.672,23.926
1642303680.070,294.434,33.203,-245.605,-109.375,12.695
1642303680.074,-760.742,5.859,-478.516,-71.777,44.922
1642303680.078,-607.422,-2.930,-639.648,-74.219,37.598
1642303680.081,501.465,18.555,-448.730,-97.168,22.949
1642303680.085,534.668,-25.391,-627.930,-93.750,0.977
1642303680.089,-540.039,-8.789,-797.852,-57.129,19.043
1642303680.093,-746.582,34.668,-473.633,-24.902,38.086
1642303680.097,265.625,11.719,-342.285,-48.340,30.762
1642303680.098,730.957,9.766,-186.035,-40.527,51.270
1642303680.102,-173.828,12.695,-105.469,-10.254,72.266
1642303680.106,-792.480,-14.160,-206.543,12.207,66.895
1642303680.110,-16.113,-24.902,-414.551,-5.371,1.953
1642303680.114,790.527,0.488,-304.199,-15.625,18.066
1642303680.118,164.551,-29.297,-338.867,19.043,25.391
1642303680.122,-774.902,-36.133,-579.590,37.109,31.250
1642303680.125,-312.500,-46.875,-721.191,21.973,15.625
1642303680.129,708.984,-27.344,-718.262,24.414,0.488
1642303680.133,477.539,21.484,-312.500,47.363,43.945
1642303680.137,-572.266,-33.691,-244.141,79.590,42.969
1642303680.141,-507.812,-62.012,-479.980,74.219,28.809
1642303680.159,588.379,-31.250,-424.805,56.641,7.812
1642303680.163,740.234,-11.230,-134.766,77.148,32.227
1642303680.167,-296.875,-61.523,-204.590,115.723,44.922
1642303680.171,-632.324,-92.285,-573.242,145.020,22.949
1642303680.175,338.867,-48.828,-596.680,122.070,-5.371
1642303680.179,914.551,-35.645,-369.141,133.301,19.531
1642303680.183,55.664,-73.242,-404.785,175.781,72.266
1642303680.186,-667.969,-107.910,-800.781,185.059,43.457
1642303680.190,91.309,-39.062,-777.832,164.551,26.855
1642303680.194,969.727,6.836,-220.215,154.297,46.875
1642303680.198,406.250,-54.688,-234.375,176.758,27.832
1642303680.202,-553.223,-84.961,-535.156,224.121,15.625
1642303680.189,-177.734,-42.969,-426.270,235.352,52.246
1642303680.193,875.000,-19.043,-97.168,215.820,83.496
1642303680.197,712.402,-81.055,-290.527,215.332,27.344
1642303680.201,-369.629,-88.867,-683.105,237.793,4.395
1642303680.205,-399.414,-34.668,-599.121,240.234,21.484
1642303680.209,652.344,-29.785,-533.203,215.820,2.930
1642303680.213,895.996,-24.902,-559.570,206.543,21.484
1642303680.216,-97.656,-20.508,-521.484,211.914,43.945
1642303680.220,-542.480,-16.602,-457.031,225.586,47.852
1642303680.224,373.047,-1.465,-301.270,193.359,38.574
1642303680.228,-995.605,-37.109,-406.738,172.363,5.371
1642303680.232,206.543,-56.641,-860.840,188.965,-2.930
1642303680.233,-581.543,19.043,-752.930,212.891,31.738
1642303680.237,49.316,29.785,-415.527,196.289,41.016
1642303680.241,978.516,20.996,-263.184,173.828,41.504
1642303680.245,511.230,26.367,-243.164,179.199,33.691
1642303680.249,-519.043,15.137,-301.758,203.613,52.246
1642303680.253,-278.320,-7.324,-490.234,186.523,46.387
1642303680.257,782.715,1.953,-598.145,153.320,34.668
1642303680.260,748.535,31.738,-403.320,167.480,43.457
1642303680.264,-337.402,28.320,-301.758,191.895,50.293
1642303680.268,-507.324,5.371,-337.891,177.246,70.312
1642303680.272,519.043,-24.414,-649.902,132.324,41.016
1642303680.276,896.484,30.273,-595.215,129.883,32.715
1642303680.294,-68.848,49.805,-268.066,148.926,49.316
1642303680.298,-639.648,4.883,-429.688,160.645,51.270
1642303680.302,226.562,32.715,-368.652,124.512,75.195
1642303680.306,942.871,51.758,-95.703,98.633,67.383
1642303680.310,200.684,20.508,-175.293,123.535,46.875
1642303680.314,-671.875,-31.250,-612.305,145.020,55.664
1642303680.318,-123.535,2.441,-796.387,113.770,38.574
1642303680.321,873.047,82.520,-323.242,95.215,42.969
1642303680.325,495.605,46.387,-130.859,105.957,57.617
1642303680.329,-575.195,-31.250,-618.652,128.418,29.297
1642303680.333,-400.391,-1.953,-837.891,112.305,4.883
1642303680.337,701.660,75.195,-360.352,71.777,25.879
1642303680.338,746.582,50.781,-113.770,77.148,35.156
1642303680.342,-325.684,20.996,-328.613,102.051,33.203
1642303680.346,-599.121,41.016,-425.293,103.027,52.734
1642303680.350,384.277,55.664,-274.414,73.242,29.297
1642303680.354,852.539,49.316,-177.734,71.777,5.859
1642303680.358,-79.590,22.949,-377.930,88.379,24.902
1642303680.362,-718.262,9.766,-681.641,102.539,21.484
1642303680.365,88.379,58.105,-526.855,80.566,30.273
1642303680.369,881.348,65.430,-218.262,53.223,18.555
1642303680.373,217.773,7.324,-556.641,79.102,0.000
1642303680.377,-687.012,47.363,-677.246,100.098,43.457
1642303680.381,-223.633,70.312,-389.648,66.406,45.898
1642303680.383,773.438,27.832,-444.336,48.340,2.930
1642303680.387,505.859,35.156,-470.215,53.223,4.883
1642303680.391,-540.039,53.711,-367.188,85.449,36.621
1642303680.395,-476.074,35.645,-357.422,77.148,24.902
1642303680.399,584.473,31.738,-392.578,31.738,-11.230
1642303680.403,725.098,32.715,-383.789,46.875,14.648
1642303680.407,-331.055,9.766,-545.410,67.383,12.207
1642303680.410,-655.762,27.832,-592.773,64.941,6.836
1642303680.414,293.457,28.809,-459.473,39.062,53.711
1642303680.418,823.730,15.625,-528.320,27.344,35.645
1642303680.422,-8.301,65.430,-319.336,67.871,40.527
1642303680.426,-735.352,45.898,-273.926,83.496,50.293
1642303680.429,-24.902,54.199,-305.176,57.617,57.617
1642303680.433,854.004,70.801,-125.977,36.621,54.199
1642303680.437,288.086,27.832,-295.898,28.809,-4.395
1642303680.441,-687.500,8.789,-537.598,56.641,-1.465
1642303680.445,-317.383,8.301,-685.547,51.270,-19.531
1642303680.449,726.562,43.945,-652.344,32.227,-34.180
1642303680.453,564.941,67.383,-395.996,49.805,35.645
1642303680.456,-515.625,33.691,-385.742,76.660,65.430
1642303680.460,-591.797,-3.906,-759.277,82.031,20.508
1642303680.464,469.727,58.594,-605.957,58.105,35.156
1642303680.468,754.395,83.008,-87.891,44.922,47.363
1642303680.472,-265.137,11.230,-269.043,41.016,20.020
1642303680.473,-716.797,9.766,-476.562,47.363,35.645
1642303680.477,200.684,62.988,-302.734,43.457,33.691
1642303680.481,836.426,68.359,-58.105,32.715,41.016
1642303680.485,29.297,32.715,-164.062,57.129,58.105
1642303680.489,-751.465,13.672,-430.176,70.312,39.062
1642303680.493,-105.469,17.090,-545.898,22.949,7.812
1642303680.497,815.918,50.781,-422.852,13.672,28.809
1642303680.500,320.312,6.348,-490.234,27.832,29.785
1642303680.504,-716.797,-34.180,-962.891,51.758,-11.230
1642303680.508,-410.156,57.617,-760.742,39.551,12.207
1642303680.512,663.574,75.684,-278.320,17.578,40.527
1642303680.516,592.773,37.109,-252.930,36.133,21.973
1642303680.534,-486.816,14.648,-345.703,59.082,25.879
1642303680.538,-626.465,23.438,-339.355,63.477,42.969
1642303680.542,407.227,32.715,-208.008,46.387,42.480
1642303680.546,747.070,7.812,-270.996,23.926,-0.488
1642303680.550,-206.055,3.906,-401.367,25.879,-1.465
1642303680.554,-738.770,-4.395,-554.199,43.457,30.273
1642303680.558,101.562,13.184,-521.484,19.043,49.316
1642303680.561,827.148,-1.953,-563.965,-10.254,29.785
1642303680.565,95.215,6.836,-680.664,17.090,21.973
1642303680.569,-748.535,42.480,-418.457,73.730,46.875
1642303680.573,-179.199,14.648,-362.793,48.828,27.344
1642303680.577,788.086,22.949,-345.703,21.484,27.832
1642303680.564,437.012,46.387,-183.105,39.062,35.645
1642303680.568,-621.094,13.672,-262.695,54.688,21.973
1642303680.572,-478.516,3.418,-437.500,44.434,19.043
1642303680.576,604.980,30.273,-359.863,18.555,4.395
1642303680.580,642.578,29.785,-202.148,21.484,-4.883
1642303680.584,-439.453,-7.812,-388.184,31.738,21.973
1642303680.588,-685.547,-19.043,-721.680,31.738,14.648
1642303680.591,343.262,37.109,-564.453,24.414,13.184
1642303680.595,799.316,63.477,-105.957,31.250,65.430
1642303680.599,-144.043,24.902,-53.711,58.105,65.918
1642303680.603,-790.527,-34.668,-522.949,58.105,33.691
1642303680.607,20.020,-0.977,-872.070,23.438,16.113
1642303680.609,847.656,99.121,-382.324,34.180,35.156
1642303680.613,181.641,64.941,-117.188,42.969,36.133
1642303680.617,-738.770,24.902,-440.430,59.570,17.090
1642303680.621,-271.484,68.848,-425.293,30.762,41.504
1642303680.625,736.816,91.797,-126.953,-9.277,45.898
1642303680.629,468.262,42.480,-229.980,18.555,21.973
1642303680.633,-612.793,-14.160,-771.484,47.852,-13.184
1642303680.636,-526.855,35.156,-826.172,45.410,-5.859
1642303680.640,571.777,94.238,-269.043,8.789,41.016
1642303680.644,705.078,52.734,-74.219,16.602,57.617
1642303680.648,-341.797,9.766,-283.691,59.082,49.316
1642303680.652,-674.805,14.648,-421.387,49.316,29.297
1642303680.669,286.133,42.480,-269.043,17.090,34.668
1642303680.673,826.660,29.297,-171.387,3.906,43.457
1642303680.677,-52.734,0.977,-383.789,17.090,46.387
1642303680.681,-772.461,13.184,-470.215,59.082,53.223
1642303680.685,-51.270,36.133,-282.227,37.109,55.176
1642303680.689,804.199,-2.441,-291.504,3.418,64.453
1642303680.693,236.816,-24.902,-625.000,4.883,39.062
1642303680.696,-710.449,20.508,-599.609,29.297,31.738
1642303680.700,-328.125,36.133,-315.430,40.039,51.758
1642303680.704,690.918,4.395,-349.609,12.695,28.809
1642303680.708,507.812,-2.930,-549.805,2.441,0.000
1642303680.712,-551.270,36.621,-412.598,31.250,33.691
1642303680.714,-585.449,29.785,-353.516,38.086,39.062
1642303680.718,480.957,41.504,-327.637,23.926,19.043
1642303680.722,750.488,62.012,-149.902,19.043,49.316
1642303680.726,-275.391,48.340,-76.660,29.785,79.590
1642303680.730,-747.070,0.977,-423.340,33.691,18.066
1642303680.734,170.410,9.277,-658.691,11.230,-14.160
1642303680.738,806.152,37.598,-499.512,-3.418,10.254
1642303680.741,21.973,30.762,-404.297,25.879,20.996
1642303680.745,-753.906,12.207,-423.340,79.102,18.555
1642303680.749,-131.348,-16.602,-715.332,11.230,19.531
1642303680.753,802.734,45.410,-591.309,-30.273,37.598
1642303680.757,352.051,60.059,-206.055,16.113,11.719
1642303680.759,-663.574,-2.441,-398.926,40.527,2.930
1642303680.763,-396.484,19.531,-473.145,31.738,24.414
1642303680.767,665.527,62.500,-201.660,-0.977,23.926
1642303680.771,609.375,42.969,-65.918,13.184,28.809
1642303680.775,-497.070,-0.488,-318.359,52.734,24.902
1642303680.779,-636.230,0.977,-580.566,44.922,29.297
1642303680.783,416.016,30.762,-506.836,20.508,27.832
1642303680.786,737.305,35.645,-332.520,11.230,4.395
1642303680.790,-243.652,-21.973,-540.527,30.762,1.953
1642303680.794,-774.902,-32.227,-951.660,61.035,4.395
1642303680.798,113.281,64.941,-626.953,33.691,14.160
1642303680.802,846.680,78.125,-66.895,10.742,41.016
1642303680.804,116.699,36.133,-106.445,15.625,40.039
1642303680.808,-737.793,20.996,-332.031,39.551,27.344
1642303680.812,-176.758,43.945,-229.980,20.996,42.480
1642303680.816,794.434,51.758,-55.176,-9.277,40.039
1642303680.820,420.410,10.254,-171.387,12.207,16.602
1642303680.824,-627.441,-19.531,-517.090,33.203,8.789
1642303680.828,-459.961,14.648,-612.793,28.809,32.227
1642303680.831,610.840,32.227,-357.422,11.230,15.625
1642303680.835,635.254,-8.789,-564.941,12.207,-22.949
1642303680.839,-422.363,28.809,-673.828,41.504,8.301
1642303680.843,-657.715,37.109,-463.379,31.738,16.113
1642303680.847,341.309,4.883,-495.117,0.000,-3.906
1642303680.848,798.340,37.109,-353.516,8.789,28.809
1642303680.852,-128.906,53.223,-205.566,25.879,49.805
1642303680.856,-764.160,25.391,-248.047,45.898,44.922
1642303680.860,34.180,22.461,-309.570,15.137,38.086
1642303680.864,828.125,34.668,-259.766,0.977,12.695
1642303680.868,175.781,14.160,-334.473,35.645,24.414
1642303680.872,-737.305,17.578,-480.957,53.223,35.645
1642303680.875,-275.879,-1.953,-580.078,22.461,12.695
1642303680.879,745.605,6.348,-631.836,-16.113,17.578
1642303680.883,493.164,59.570,-311.035,-0.488,41.992
1642303680.887,-589.844,15.625,-258.789,38.086,33.691
1642303680.891,-536.133,9.766,-410.156,43.457,35.156
1642303680.924,535.645,62.988,-204.102,18.066,65.430
1642303680.928,679.199,39.062,-52.734,5.859,68.848
1642303680.932,-358.398,-15.137,-367.188,28.809,17.578
1642303680.936,-682.617,5.859,-611.328,41.504,23.926
1642303680.940,270.996,45.898,-451.660,2.441,35.156
1642303680.944,797.852,40.527,-302.246,-4.395,23.926
1642303680.948,-58.105,21.973,-324.707,17.578,61.035
1642303680.951,-773.926,-22.949,-712.402,34.668,9.277
1642303680.955,-53.223,30.273,-821.777,20.996,-31.738
1642303680.959,822.266,89.355,-222.168,12.207,20.996
1642303680.963,260.254,33.691,-162.109,23.438,47.363
1642303680.967,-694.824,5.371,-342.773,42.480,75.684
1642303680.939,-325.684,18.555,-325.195,16.602,33.203
1642303680.943,702.637,39.062,-207.520,0.000,2.441
1642303680.947,530.762,30.273,-199.707,26.367,30.273
1642303680.951,-536.133,16.113,-375.977,46.387,41.016
1642303680.955,-561.523,17.578,-458.984,24.902,33.691
1642303680.959,491.699,16.602,-483.887,-12.207,17.578
1642303680.963,728.027,19.043,-537.109,5.859,10.254
1642303680.966,-286.621,26.855,-522.949,45.410,28.320
1642303680.970,-725.098,30.273,-396.484,48.340,38.086
1642303680.974,187.500,36.133,-333.984,-1.465,3.418
1642303680.978,826.172,47.363,-260.254,-1.465,28.320
1642303680.982,27.344,32.715,-273.438,25.879,48.828
1642303680.983,-760.254,29.785,-364.746,38.574,39.551
1642303680.987,-111.328,59.082,-216.797,25.391,70.312
1642303680.991,789.062,4.883,-347.168,4.395,43.457
1642303680.995,320.312,0.000,-762.207,2.930,-1.465
1642303680.999,-649.902,54.199,-619.141,31.250,13.672
1642303681.003,-381.348,26.855,-483.887,29.785,29.785
1642303681.007,661.621,10.742,-684.082,4.395,2.930
1642303681.010,597.168,36.621,-604.980,17.578,28.809
1642303681.014,-463.867,48.340,-381.836,30.762,45.410
1642303681.018,-609.863,23.926,-429.199,19.043,20.508
1642303681.022,415.527,33.203,-404.297,0.488,29.297
1642303681.026,774.902,57.617,-156.738,6.348,39.551
1642303681.028,-202.637,23.926,-159.668,28.320,26.367
1642303681.032,-739.746,-1.465,-406.250,40.527,27.344
1642303681.036,119.629,28.809,-408.691,13.184,25.879
1642303681.040,838.379,62.012,-153.320,12.695,31.738
1642303681.044,109.863,41.504,-99.609,31.738,33.691
1642303681.048,-762.695,-23.438,-518.555,38.574,33.203
1642303681.052,-201.660,0.488,-756.836,19.531,20.020
1642303681.055,781.738,71.777,-377.441,2.441,1.465
1642303681.059,410.645,56.152,-160.645,14.160,12.695
1642303681.063,-625.488,14.648,-408.203,48.340,30.762
1642303681.067,-475.586,12.695,-607.422,39.551,34.668
1642303681.071,569.336,54.688,-360.840,3.906,43.945
1642303681.088,607.422,52.246,-138.672,-2.441,35.156
1642303681.092,-446.777,3.906,-411.133,25.879,16.602
1642303681.096,-672.852,20.508,-589.844,34.668,18.555
1642303681.100,344.238,73.730,-244.629,0.488,47.363
1642303681.104,790.527,49.805,-62.500,13.184,35.156
1642303681.108,-141.602,1.953,-381.348,35.645,17.578
1642303681.112,-758.301,15.625,-561.523,35.156,36.133
1642303681.115,40.039,47.852,-336.426,6.348,35.645
1642303681.119,813.965,29.297,-187.988,7.812,24.414
1642303681.123,165.039,-9.766,-522.949,39.551,10.254
1642303681.127,-722.656,31.738,-640.137,54.688,37.109
1642303681.131,-255.859,61.523,-354.492,37.109,43.457
1642303681.134,744.629,44.434,-238.281,11.230,33.691
1642303681.138,459.473,27.832,-332.520,12.207,34.668
1642303681.142,-609.863,33.691,-431.641,41.504,40.039
1642303681.146,-523.926,35.156,-368.652,24.414,34.668
1642303681.150,533.691,9.766,-407.715,-4.395,16.602
1642303681.154,654.785,-1.465,-546.387,-4.395,16.113
1642303681.158,-379.395,9.766,-630.859,8.301,16.113
1642303681.161,-704.590,29.297,-519.043,26.367,25.391
1642303681.165,263.672,11.230,-495.117,7.812,19.043
1642303681.169,798.828,13.672,-565.918,8.789,35.645
1642303681.173,-64.941,60.059,-325.684,38.086,58.594
1642303681.177,-759.277,40.039,-262.695,61.523,56.641
1642303681.179,-11.719,27.344,-387.207,20.020,17.578
1642303681.183,834.473,52.734,-263.184,-5.371,20.020
1642303681.187,243.652,54.199,-96.680,11.230,54.688
1642303681.191,-715.332,13.672,-258.789,23.438,49.805
1642303681.195,-341.797,7.812,-488.770,1.465,31.738
1642303681.199,689.941,39.062,-463.867,-4.883,23.926
1642303681.203,514.160,34.668,-396.973,14.648,29.297
1642303681.206,-557.129,14.648,-469.238,45.410,31.250
1642303681.210,-598.633,-27.832,-801.270,23.438,5.371
1642303681.214,465.332,20.996,-852.539,-17.578,-16.113
1642303681.218,731.934,83.008,-297.363,12.695,13.672
1642303681.222,-280.273,20.996,-244.141,35.156,31.738
1642303681.224,-717.773,-2.930,-455.078,46.387,22.949
1642303681.228,211.914,37.598,-282.715,21.973,30.762
1642303681.232,831.055,38.086,-67.383,15.625,33.691
1642303681.236,10.742,-4.395,-267.578,37.109,6.836
1642303681.240,-764.648,-7.324,-462.891,43.945,32.715
1642303681.244,-115.234,8.789,-427.246,21.973,55.176
1642303681.248,792.480,27.344,-362.793,-3.906,27.832
1642303681.251,324.219,-11.230,-500.000,5.371,7.812
1642303681.255,-685.059,-45.410,-924.316,32.715,-2.441
1642303681.259,-414.551,34.180,-766.602,16.602,3.418
1642303681.263,657.227,63.477,-169.434,-4.883,53.711
1642303681.267,594.727,24.414,-95.703,6.348,50.293
1642303681.269,-486.328,2.930,-316.895,29.785,25.879
1642303681.273,-619.141,3.418,-363.281,44.434,21.484
1642303681.277,426.270,23.438,-224.609,24.414,32.227
1642303681.281,769.043,34.180,-104.980,25.879,67.871
1642303681.285,-204.590,9.277,-205.566,32.227,55.664
1642303681.289,-757.812,-17.090,-474.609,22.461,26.367
1642303681.293,93.750,-0.488,-574.219,13.672,29.785
1642303681.296,833.984,14.160,-495.117,1.465,28.809
1642303681.300,108.887,24.414,-417.969,5.859,23.926
1642303681.304,-754.883,19.531,-408.203,23.926,14.160
1642303681.308,-207.031,6.348,-503.906,0.000,10.742
1642303681.312,739.258,19.043,-668.457,-4.883,9.766
1642303681.314,389.160,65.430,-520.508,16.113,18.555
1642303681.318,-621.582,47.363,-339.355,41.504,18.066
1642303681.322,-467.285,14.160,-482.422,19.531,7.324
1642303681.326,602.539,44.922,-379.395,-11.230,15.625
1642303681.330,660.156,51.758,-169.434,13.184,18.555
1642303681.334,-419.922,15.137,-325.195,43.945,37.109
1642303681.338,-677.734,-14.160,-633.301,45.410,55.664
1642303681.341,319.336,22.461,-701.660,-6.348,47.363
1642303681.345,782.715,93.750,-265.137,-12.695,64.453
1642303681.349,-134.766,47.852,-122.070,26.855,45.898
1642303681.353,-764.160,15.137,-416.016,42.969,26.855
1642303681.357,46.387,51.270,-367.188,25.879,41.992
1642303681.359,834.961,67.871,-112.305,-1.465,42.480
1642303681.363,177.734,35.645,-215.820,9.277,28.809
1642303681.367,-739.746,4.883,-634.277,29.785,20.020
1642303681.371,-276.367,44.922,-647.949,-4.395,22.949
1642303681.375,740.234,69.336,-234.375,-15.137,27.344
1642303681.379,461.914,26.855,-226.074,1.465,39.551
1642303681.383,-609.375,-28.320,-734.863,17.578,7.812
1642303681.386,-537.109,12.695,-841.309,22.949,-10.742
1642303681.390,550.781,81.055,-253.906,10.254,42.969
1642303681.394,687.012,27.832,-70.312,4.883,46.875
1642303681.398,-363.281,-10.254,-337.891,8.301,27.344
1642303681.402,-703.613,12.695,-434.082,10.254,25.391
1642303681.404,250.488,41.504,-279.297,0.488,26.367
1642303681.408,795.898,35.645,-157.715,-3.906,52.246
1642303681.412,-58.594,-0.977,-320.312,20.020,29.785
1642303681.416,-761.230,1.465,-444.824,44.434,25.391
1642303681.420,-43.457,24.902,-411.133,9.277,43.945
1642303681.424,812.500,2.441,-458.984,-16.113,13.184
1642303681.428,253.418,-26.367,-814.453,-16.113,6.836
1642303681.431,-699.707,23.438,-758.789,22.949,36.621
1642303681.435,-335.938,53.711,-335.449,28.320,62.500
1642303681.439,694.336,53.711,-177.246,3.418,64.453
1642303681.443,526.367,35.156,-213.379,12.207,19.043
1642303681.447,-533.203,22.461,-250.977,36.621,39.551
1642303681.464,-569.336,1.953,-328.613,36.621,40.039
1642303681.468,483.887,16.113,-349.121,-1.953,22.461
1642303681.472,729.980,45.410,-134.277,2.930,70.801
1642303681.476,-287.598,8.301,-163.086,26.855,55.176
1642303681.480,-725.098,-16.602,-388.184,29.785,21.973
1642303681.484,174.805,5.859,-512.695,11.719,24.902
1642303681.488,790.527,36.621,-408.691,1.953,21.973
1642303681.491,-2.441,29.785,-402.344,26.855,12.207
1642303681.495,-774.902,15.137,-479.492,61.035,29.297
1642303681.499,-147.949,-13.184,-742.188,39.551,15.137
1642303681.503,785.156,60.059,-630.371,19.531,33.691
1642303681.507,340.332,86.426,-158.203,19.531,52.734
1642303681.509,-681.641,14.160,-370.117,34.668,20.508
1642303681.513,-396.973,26.855,-465.332,26.367,35.156
1642303681.517,675.781,61.035,-202.637,13.672,42.480
1642303681.521,601.562,46.875,-108.887,25.391,24.414
1642303681.525,-460.449,8.789,-345.215,42.969,26.367
1642303681.529,-608.887,0.977,-578.613,44.434,37.598
1642303681.533,406.738,28.320,-552.246,15.625,20.508
1642303681.536,765.137,56.152,-266.602,10.742,44.434
1642303681.540,-208.984,-0.488,-391.602,32.715,29.785
1642303681.544,-750.000,-33.691,-895.020,32.715,-9.766
1642303681.548,131.836,51.270,-692.871,8.301,8.789
1642303681.552,839.844,66.406,-151.367,12.695,41.504
1642303681.554,111.816,14.648,-263.184,34.668,21.973
1642303681.558,-722.168,24.414,-511.230,53.711,10.742
1642303681.562,-185.059,55.664,-311.523,15.137,29.785
1642303681.566,776.367,60.547,-49.805,-5.371,56.641
1642303681.570,399.902,27.832,-123.535,13.672,42.480
1642303681.574,-628.906,7.812,-454.590,44.922,21.973
1642303681.578,-458.496,29.785,-547.852,36.621,37.598
1642303681.581,587.891,44.922,-354.492,-10.742,22.949
1642303681.585,617.188,14.160,-482.422,-1.465,10.742
1642303681.589,-427.246,27.344,-584.473,27.344,31.250
1642303681.593,-652.344,55.664,-321.289,37.109,33.203
1642303681.597,341.309,47.852,-249.512,23.438,14.160
1642303681.600,791.992,36.133,-205.566,-3.418,6.348
1642303681.604,-124.512,16.113,-335.449,7.324,12.695
1642303681.608,-737.793,22.461,-375.977,42.969,44.434
1642303681.612,39.551,5.859,-394.531,21.484,29.785
1642303681.616,803.711,14.160,-390.625,2.930,18.555
1642303681.620,161.621,26.367,-360.840,18.555,14.160
1642303681.624,-749.512,7.812,-583.496,43.457,-0.977
1642303681.627,-289.062,1.465,-728.516,23.926,-2.441
1642303681.631,729.004,37.109,-646.973,0.977,12.695
1642303681.635,472.656,74.707,-294.434,5.371,20.508
1642303681.639,-590.332,36.621,-214.844,27.344,26.367
1642303681.643,-522.949,27.832,-343.262,30.762,32.227
1642303681.644,553.223,54.688,-250.488,7.812,14.160
1642303681.648,685.547,61.523,-62.988,8.301,20.996
1642303681.652,-361.816,33.203,-121.582,39.062,41.504
1642303681.656,-694.336,-1.465,-440.918,42.969,27.344
1642303681.660,279.297,21.973,-580.566,10.742,-20.020
1642303681.664,809.570,54.688,-421.387,10.254,-9.766
1642303681.668,-67.871,39.551,-448.730,34.668,13.184
1642303681.671,-774.414,-13.672,-814.453,45.898,-1.953
1642303681.675,-38.574,31.738,-858.398,-4.395,6.836
1642303681.679,829.102,110.840,-264.160,-19.043,31.250
1642303681.683,252.441,54.199,-82.031,4.395,41.504
1642303681.687,-703.613,12.695,-346.191,31.250,27.344
1642303681.704,-318.359,46.875,-316.406,24.902,30.273
1642303681.708,709.473,66.406,-83.008,-8.301,42.969
1642303681.712,515.137,35.645,-162.598,10.254,22.949
1642303681.716,-549.316,30.762,-368.164,41.992,34.668
1642303681.720,-577.148,43.945,-333.984,35.645,53.223
1642303681.724,478.027,51.270,-332.031,6.348,23.926
1642303681.728,719.238,29.785,-450.195,4.883,19.531
1642303681.731,-313.477,-3.906,-842.285,22.461,6.348
1642303681.735,-724.609,68.359,-779.785,42.969,12.695
1642303681.739,208.984,102.051,-271.484,23.926,37.598
1642303681.743,820.312,83.496,-116.211,0.977,39.062
1642303681.747,16.602,62.500,-207.520,20.020,30.273
1642303681.734,-755.859,49.805,-287.109,58.594,34.180
1642303681.738,-103.027,55.176,-268.066,32.715,34.180
1642303681.742,799.316,55.664,-210.938,9.277,31.250
1642303681.746,321.289,50.293,-244.141,31.738,17.578
1642303681.750,-675.781,30.273,-340.820,44.434,17.090
1642303681.754,-411.133,9.277,-564.941,21.973,6.836
1642303681.758,639.648,40.039,-538.574,1.465,7.812
1642303681.761,573.242,62.500,-254.395,15.625,31.250
1642303681.765,-481.445,40.527,-187.988,40.039,68.359
1642303681.769,-624.023,10.742,-372.070,35.645,46.387
1642303681.773,378.906,-18.066,-772.461,7.812,3.906
1642303681.777,743.164,35.645,-699.707,5.371,29.297
1642303681.793,-204.102,66.406,-290.527,23.438,48.340
1642303681.797,-746.094,10.254,-436.035,36.133,16.113
1642303681.801,115.234,36.133,-457.520,19.043,18.555
1642303681.805,833.984,68.848,-117.676,10.742,55.664
1642303681.809,114.746,30.762,-77.637,14.160,46.875
1642303681.813,-746.582,-37.598,-575.195,29.297,2.930
1642303681.817,-190.430,-9.277,-834.961,17.578,-5.859
1642303681.820,784.180,75.684,-377.441,-3.906,21.973
1642303681.824,404.785,55.176,-176.758,8.301,7.324
1642303681.828,-645.508,2.930,-500.000,49.316,7.324
1642303681.832,-467.773,23.926,-625.488,39.551,21.484
1642303681.836,614.746,63.477,-233.887,16.602,36.621
1642303681.838,641.113,19.043,-152.344,29.297,36.133
1642303681.842,-422.852,-21.973,-573.730,46.387,6.836
1642303681.846,-650.391,9.766,-653.809,45.410,12.207
1642303681.850,356.934,49.805,-292.480,17.090,40.039
1642303681.854,807.617,32.227,-68.848,5.859,52.246
1642303681.858,-142.090,-19.531,-351.562,22.461,20.996
1642303681.862,-769.043,-13.672,-691.406,59.082,14.160
1642303681.865,53.711,41.016,-553.711,26.367,16.602
1642303681.869,839.844,46.387,-264.160,2.441,1.465
1642303681.873,170.898,-14.648,-589.355,23.926,-11.719
1642303681.877,-733.887,23.438,-808.594,30.762,-3.906
1642303681.881,-250.488,86.914,-364.258,19.531,40.527
1642303681.884,754.395,74.219,-85.938,10.254,68.848
1642303681.888,478.027,47.852,-131.836,12.695,41.504
1642303681.892,-588.379,36.133,-217.773,25.879,45.898
1642303681.896,-510.742,22.949,-352.051,10.742,37.109
1642303681.900,532.715,18.066,-513.184,-15.137,6.348
1642303681.904,656.250,31.738,-528.320,-2.441,15.625
1642303681.908,-359.375,38.574,-528.320,25.391,31.250
1642303681.911,-690.430,46.387,-425.293,26.367,41.016
1642303681.915,255.371,20.996,-436.523,-13.672,20.996
1642303681.919,796.387,13.184,-572.266,-20.508,9.277
1642303681.923,-56.152,48.340,-372.070,7.324,24.902
1642303681.927,-775.391,21.484,-335.449,41.992,27.344
1642303681.929,-48.340,17.090,-439.941,19.531,7.812
1642303681.933,816.895,38.574,-283.203,-10.742,10.742
1642303681.937,260.254,30.273,-150.879,10.742,25.879
1642303681.941,-718.262,9.766,-269.531,39.551,36.133
1642303681.945,-356.934,1.953,-448.242,31.250,5.859
1642303681.949,682.617,25.879,-452.637,-4.883,-7.324
1642303681.953,504.395,36.621,-372.559,-14.160,30.273
1642303681.956,-552.246,25.879,-424.805,34.668,60.547
1642303681.960,-584.473,-23.438,-789.062,24.902,-0.488
1642303681.964,459.473,21.484,-847.656,-24.902,-37.598
1642303681.968,700.195,83.496,-293.945,-26.855,9.766
1642303681.972,-316.895,18.066,-247.070,-6.836,23.926
1642303681.974,-746.094,4.883,-411.133,9.766,35.645
1642303681.978,164.551,44.434,-225.098,-22.949,37.598
1642303681.982,778.320,47.852,0.000,-24.414,50.293
1642303681.986,-21.973,5.859,-116.699,-8.301,58.105
1642303681.990,-799.805,-13.672,-450.684,0.977,33.203
1642303681.994,-163.574,15.625,-486.816,-6.348,37.109
1642303681.998,750.977,38.574,-269.531,-14.648,53.223
1642303682.001,274.902,-9.766,-444.824,-15.625,1.953
1642303682.005,-735.352,-20.508,-784.668,-6.836,0.000
1642303682.009,-439.453,45.898,-604.980,-20.996,28.809
1642303682.013,627.441,71.777,-192.383,-14.648,22.461
1642303682.017,550.781,40.039,-145.996,18.066,27.832
1642303682.018,-520.996,22.461,-312.500,34.180,40.527
1642303682.022,-650.879,32.715,-219.238,10.254,49.805
1642303682.026,384.277,32.227,-92.773,-32.715,36.621
1642303682.030,719.238,30.273,-35.156,-11.719,41.016
1642303682.034,-263.184,-0.488,-120.117,5.371,44.434
1642303682.038,-817.871,-44.922,-340.820,-8.789,33.691
1642303682.042,14.648,-36.621,-449.219,-55.664,11.230
1642303682.045,708.496,2.441,-431.152,-93.262,3.418
1642303682.049,-44.434,46.387,-261.719,-109.863,29.785
1642303682.053,-915.527,23.438,-62.500,-120.605,39.551
1642303682.057,-365.234,-56.152,-89.355,-151.855,15.625
1642303682.061,571.777,-120.117,-22.461,-213.867,41.504
1642303682.064,166.016,-207.520,-14.160,-237.793,51.270
1642303682.068,-864.258,-296.875,-135.742,-214.355,22.949
1642303682.072,-718.262,-371.094,-318.359,-236.816,1.465
1642303682.076,325.195,-363.281,-343.750,-274.414,9.766
1642303682.080,377.930,-315.430,-5.371,-291.992,45.898
1642303682.084,-652.344,-377.441,-93.750,-279.785,45.410
1642303682.088,-914.551,-422.852,-547.363,-249.023,0.977
1642303682.091,54.199,-349.121,-608.398,-272.949,14.160
1642303682.095,525.391,-242.188,-112.305,-280.762,48.828
1642303682.099,-385.742,-267.578,47.363,-256.836,33.203
1642303682.103,-1000.000,-281.738,-217.285,-237.793,45.898
1642303682.107,-233.398,-232.422,-204.590,-246.094,44.922
1642303682.109,586.426,-201.172,68.848,-239.258,39.062
1642303682.113,-39.062,-227.539,74.219,-205.078,46.387
1642303682.117,-961.426,-255.859,-231.445,-183.594,43.457
1642303682.121,-502.441,-232.910,-416.016,-203.125,36.621
1642303682.125,532.227,-189.453,-186.035,-210.449,45.410
1642303682.129,271.484,-218.750,-136.719,-187.500,59.570
1642303682.133,-775.879,-310.547,-699.219,-158.203,11.719
1642303682.136,-706.543,-259.766,-884.766,-183.105,13.184
1642303682.140,373.047,-144.043,-337.402,-180.664,54.688
1642303682.144,527.832,-173.828,-68.359,-131.348,56.641
1642303682.148,-511.230,-228.516,-275.879,-95.215,51.270
1642303682.152,-829.102,-224.609,-407.715,-84.961,37.109
1642303682.169,140.625,-192.871,-255.371,-121.582,50.781
1642303682.173,676.758,-208.984,-172.363,-120.117,57.129
1642303682.177,-164.551,-240.234,-345.215,-79.590,43.945
1642303682.181,-837.891,-249.512,-525.879,-58.105,16.602
1642303682.185,-110.840,-237.793,-517.578,-68.359,-2.441
1642303682.189,738.281,-264.648,-550.293,-66.895,9.766
1642303682.193,173.340,-288.086,-758.301,-37.598,26.855
1642303682.196,-761.719,-246.094,-704.590,20.996,80.078
1642303682.200,-359.863,-233.398,-502.441,14.160,58.594
1642303682.204,686.523,-273.438,-487.793,5.859,25.879
1642303682.208,519.531,-302.734,-704.102,29.297,26.367
1642303682.212,-543.457,-260.254,-625.977,70.801,27.832
1642303682.213,-567.383,-267.578,-518.066,96.191,22.949
1642303682.217,515.625,-246.582,-381.348,97.168,54.688
1642303682.221,787.598,-227.539,-196.777,115.723,75.195
1642303682.225,-208.984,-254.883,-257.812,127.930,63.965
1642303682.229,-649.902,-267.578,-414.551,136.230,66.406
1642303682.233,265.137,-259.277,-564.453,139.160,30.762
1642303682.237,911.621,-220.215,-554.688,166.504,32.715
1642303682.240,120.605,-205.078,-401.367,199.219,69.824
1642303682.244,-649.414,-227.051,-451.172,201.172,58.105
1642303682.248,-19.531,-271.973,-846.191,173.340,9.277
1642303682.252,906.250,-204.102,-837.402,176.270,0.488
1642303682.256,474.609,-149.414,-432.129,206.055,13.184
1642303682.259,-541.016,-211.914,-501.953,227.051,25.879
1642303682.263,-267.090,-192.871,-647.461,194.824,14.648
1642303682.267,803.711,-127.441,-334.473,164.551,36.621
1642303682.271,731.445,-149.902,-150.391,166.504,39.551
1642303682.275,-325.195,-199.707,-488.770,198.730,3.418
1642303682.279,-462.402,-189.941,-724.609,215.332,24.414
1642303682.283,561.035,-158.203,-715.820,176.270,1.953
1642303682.286,929.688,-116.211,-449.707,187.500,6.348
1642303682.290,-54.688,-185.059,-513.184,217.285,17.578
1642303682.294,-595.703,-209.473,-911.621,215.820,-3.906
1642303682.298,298.340,-103.027,-600.586,194.824,11.230
1642303682.302,994.141,-114.258,-254.395,171.387,25.879
1642303682.304,248.047,-155.762,-485.352,188.477,29.785
1642303682.308,-577.148,-125.977,-581.055,228.516,52.734
1642303682.312,-12.695,-99.609,-372.070,202.637,41.504
1642303682.316,931.152,-108.887,-232.910,181.152,19.531
1642303682.320,546.387,-142.090,-342.773,168.945,5.371
1642303682.324,-488.770,-156.738,-624.512,178.711,9.277
1642303682.328,-314.941,-119.141,-682.129,176.758,34.668
1642303682.331,749.512,-81.055,-392.090,142.090,47.852
1642303682.335,770.508,-131.348,-541.992,143.555,15.625
1642303682.339,-293.945,-120.117,-727.051,158.203,14.648
1642303682.343,-523.438,-67.871,-434.570,154.785,33.691
1642303682.347,478.516,-79.102,-307.129,120.605,33.691
1642303682.349,913.086,-79.102,-216.309,117.676,43.457
1642303682.353,-15.625,-92.285,-252.441,137.207,25.879
1642303682.357,-638.184,-112.793,-400.391,145.508,14.160
1642303682.361,136.230,-119.629,-553.711,115.723,19.531
1642303682.365,923.340,-88.867,-504.395,97.168,20.020
1642303682.369,283.691,-75.195,-397.461,123.047,28.320
1642303682.373,-627.930,-93.262,-539.551,141.113,31.250
1642303682.376,-187.988,-113.281,-689.941,99.121,19.531
1642303682.380,799.316,-74.707,-669.434,68.848,17.578
1642303682.384,555.664,-4.395,-303.711,84.473,37.598
1642303682.388,-499.023,-40.527,-193.848,111.816,48.340
1642303682.392,-437.500,-63.965,-382.324,110.840,25.391
1642303682.394,632.812,-23.926,-300.781,82.031,15.137
1642303682.398,767.578,-16.602,-97.656,75.195,27.344
1642303682.402,-286.133,-65.918,-193.848,99.609,35.156
1642303682.406,-631.836,-83.496,-431.152,96.191,27.344
1642303682.410,319.824,-47.852,-427.734,44.434,23.926
1642303682.414,841.797,-31.738,-300.293,38.086,49.316
1642303682.418,-13.672,-61.035,-366.699,74.707,53.711
1642303682.421,-715.332,-127.441,-771.484,83.984,30.762
1642303682.425,-12.695,-83.496,-898.926,47.363,5.371
1642303682.429,842.773,8.789,-307.129,43.945,29.785
1642303682.433,294.922,-50.781,-73.242,71.777,60.547
1642303682.437,-667.969,-94.727,-346.191,101.562,37.598
1642303682.439,-293.457,-46.387,-357.910,71.777,19.043
1642303682.443,739.746,-12.207,-134.277,27.344,25.391
1642303682.447,555.176,-45.898,-161.621,39.551,30.273
1642303682.451,-505.859,-71.777,-381.836,60.059,34.180
1642303682.455,-535.645,-49.805,-399.902,55.664,39.551
1642303682.459,517.578,-27.344,-312.500,46.875,41.016
1642303682.463,740.234,-66.895,-452.148,51.758,7.324
1642303682.466,-275.391,-77.637,-776.367,62.012,-16.113
1642303682.470,-676.758,-14.648,-683.105,63.477,21.484
1642303682.474,227.539,3.418,-444.336,27.344,1.465
1642303682.478,827.148,9.766,-314.453,27.344,17.090
1642303682.482,27.832,-14.648,-325.195,48.828,40.039
1642303682.484,-715.332,-14.648,-305.664,60.059,36.133
1642303682.488,-79.102,0.000,-248.047,43.945,33.203
1642303682.492,806.641,2.441,-195.801,47.363,25.391
1642303682.496,349.609,3.906,-185.059,69.824,32.227
1642303682.500,-652.344,-16.602,-281.250,75.195,27.832
1642303682.504,-395.020,-36.133,-468.750,51.758,17.578
1642303682.508,668.945,-19.531,-658.203,10.254,24.902
1642303682.511,613.281,20.508,-609.375,15.137,12.207
1642303682.515,-453.613,49.805,-305.664,57.129,44.434
1642303682.519,-595.703,14.160,-284.180,51.758,70.312
1642303682.523,433.594,22.949,-291.504,14.160,39.551
1642303682.527,784.180,28.320,-227.539,17.090,27.344
1642303682.529,-189.453,-2.930,-371.094,37.109,16.113
1642303682.533,-724.121,-20.508,-552.734,46.387,12.207
1642303682.537,123.535,8.301,-602.051,18.555,8.301
1642303682.541,836.426,66.406,-290.527,7.812,20.020
1642303682.545,116.699,34.668,-142.090,29.785,34.668
1642303682.549,-743.652,-47.852,-526.855,62.012,33.203
1642303682.553,-192.383,-20.508,-876.465,35.156,17.578
1642303682.556,786.621,97.168,-463.379,-1.465,26.855
1642303682.560,414.062,76.660,-89.844,6.348,46.875
1642303682.564,-634.766,20.020,-332.520,29.297,36.133
1642303682.568,-462.402,41.992,-393.555,30.762,55.664
1642303682.572,616.211,82.520,-111.816,12.207,69.336
1642303682.588,645.020,64.941,-70.801,19.043,37.598
1642303682.592,-420.410,32.227,-284.180,41.016,37.598
1642303682.596,-654.785,27.344,-500.000,43.945,40.039
1642303682.600,361.328,62.500,-388.672,20.508,55.664
1642303682.604,810.059,78.125,-51.758,31.250,74.219
1642303682.608,-143.555,-29.785,-492.188,52.246,13.672
1642303682.612,-758.301,-11.719,-962.402,33.203,-15.625
1642303682.615,51.758,107.910,-476.074,-1.465,40.039
1642303682.619,833.984,80.566,-114.258,-0.488,54.199
1642303682.623,187.012,18.066,-340.820,21.484,19.043
1642303682.627,-715.332,21.484,-553.711,56.641,17.090
1642303682.631,-249.512,48.828,-417.969,49.316,32.227
1642303682.634,738.281,55.664,-271.973,6.348,17.578
1642303682.638,456.543,55.176,-224.609,17.578,38.574
1642303682.642,-602.051,50.293,-249.512,46.387,59.082
1642303682.646,-520.508,50.781,-324.707,26.367,41.016
1642303682.650,573.242,55.176,-349.609,9.766,14.648
1642303682.654,701.660,49.316,-443.359,11.719,12.695
1642303682.658,-375.977,39.062,-582.520,26.367,22.949
1642303682.661,-715.820,50.781,-633.301,38.574,35.645
1642303682.665,261.719,52.734,-568.848,18.555,41.504
1642303682.669,791.016,44.434,-711.914,0.000,15.137
1642303682.673,-54.199,95.703,-597.168,15.625,10.742
1642303682.677,-739.258,89.355,-384.277,52.734,12.695
1642303682.679,-27.832,83.008,-354.004,20.020,22.461
1642303682.683,826.172,100.586,-127.930,11.230,49.805
1642303682.687,256.836,72.754,-22.949,26.367,50.781
1642303682.691,-712.891,33.691,-264.648,27.344,29.785
1642303682.695,-336.914,35.156,-414.551,27.832,34.668
1642303682.699,677.246,61.035,-350.098,1.465,40.039
1642303682.703,493.652,59.570,-368.164,-10.742,30.273
1642303682.706,-550.781,40.527,-459.473,12.207,29.297
1642303682.710,-583.008,-5.859,-781.250,12.695,16.113
1642303682.714,473.145,53.223,-818.359,-5.859,12.207
1642303682.718,742.188,123.047,-234.863,13.672,35.156
1642303682.722,-266.602,43.945,-252.930,46.387,10.742
1642303682.724,-706.055,27.344,-513.672,38.574,-0.977
1642303682.728,191.895,80.078,-310.059,3.418,21.973
1642303682.732,806.152,87.402,-8.301,14.160,48.340
1642303682.736,-1.465,32.715,-176.758,34.668,26.855
1642303682.740,-753.906,10.742,-486.328,46.875,1.465
1642303682.744,-116.699,33.203,-518.066,7.812,18.066
1642303682.748,775.391,62.012,-375.977,-18.555,33.203
1642303682.751,307.617,33.691,-426.758,15.625,21.973
1642303682.755,-694.824,10.742,-765.625,41.016,15.137
1642303682.759,-388.184,89.355,-568.359,36.133,28.809
1642303682.763,667.480,108.398,-124.512,17.578,40.527
1642303682.767,590.820,63.477,-195.312,14.648,22.461
1642303682.768,-476.562,49.316,-378.418,60.059,26.855
1642303682.772,-610.840,64.453,-308.594,66.895,41.504
1642303682.776,424.316,74.707,-198.730,23.438,29.785
1642303682.780,774.414,71.777,-190.918,1.465,35.645
1642303682.784,-201.172,50.293,-291.992,27.832,44.922
1642303682.788,-740.234,23.926,-503.906,63.965,25.879
1642303682.792,105.469,58.594,-517.090,23.926,27.344
1642303682.795,803.711,42.969,-618.164,6.348,0.488
1642303682.799,86.914,54.199,-617.188,22.461,24.414
1642303682.803,-749.512,84.473,-350.586,52.734,50.293
1642303682.807,-187.988,67.383,-317.871,52.246,40.039
1642303682.811,775.391,76.660,-177.734,14.160,55.664
1642303682.813,406.738,77.637,-123.535,4.395,38.086
1642303682.817,-628.906,50.781,-199.219,25.391,52.246
1642303682.821,-467.285,0.000,-530.273,9.766,19.531
1642303682.825,597.168,51.270,-562.500,-19.043,17.578
1642303682.829,647.949,94.727,-237.793,-1.465,50.781
1642303682.833,-403.809,48.828,-407.715,45.410,27.344
1642303682.837,-650.391,15.137,-732.422,46.387,8.301
1642303682.840,334.961,60.059,-804.688,-4.883,2.441
1642303682.844,789.551,143.066,-335.938,8.301,35.156
1642303682.848,-123.047,89.844,-122.070,44.434,42.480
1642303682.852,-758.789,43.945,-386.719,59.082,30.762
1642303682.856,40.527,66.406,-362.793,35.645,41.992
1642303682.859,838.867,83.496,-131.348,19.531,32.715
1642303682.863,171.387,58.594,-148.438,45.898,27.344
1642303682.867,-745.117,33.691,-378.906,71.289,42.480
1642303682.871,-270.020,59.570,-392.578,43.945,57.129
1642303682.875,736.328,77.637,-99.609,-0.977,70.801
1642303682.879,456.055,41.504,-199.707,10.254,47.363
1642303682.883,-613.281,-31.250,-755.371,49.316,5.371
1642303682.886,-517.090,12.695,-947.266,27.344,-17.090
1642303682.890,567.383,123.535,-483.398,1.465,4.883
1642303682.894,678.223,88.867,-197.266,-1.953,27.832
1642303682.898,-355.957,41.016,-326.172,25.391,43.457
1642303682.902,-674.805,50.781,-386.230,55.176,38.574
1642303682.919,284.668,69.824,-266.602,30.273,17.578
1642303682.923,799.316,50.781,-189.941,29.785,20.508
1642303682.927,-68.359,21.973,-352.539,34.668,19.043
1642303682.931,-757.812,43.945,-446.777,35.156,33.203
1642303682.935,-33.203,62.500,-366.699,28.809,19.531
1642303682.939,800.781,26.367,-377.930,4.395,31.738
1642303682.943,240.723,20.020,-634.277,18.555,48.340
1642303682.946,-690.918,69.824,-606.934,42.480,37.109
1642303682.950,-331.543,67.383,-429.199,11.719,42.480
1642303682.954,696.289,55.664,-428.223,-1.953,24.902
1642303682.958,515.137,56.641,-398.438,11.230,10.742
1642303682.962,-550.293,55.176,-311.523,38.574,30.273
1642303682.964,-576.660,48.828,-285.156,26.367,60.059
1642303682.968,470.215,65.918,-246.094,-1.465,56.152
1642303682.972,712.891,71.289,-185.059,4.883,33.691
1642303682.976,-284.668,44.434,-291.016,21.484,10.742
1642303682.980,-738.281,34.668,-455.078,41.504,7.324
1642303682.984,155.273,50.781,-430.176,25.391,57.129
1642303682.988,811.035,66.895,-350.098,7.324,42.480
1642303682.991,22.461,64.453,-316.406,37.109,5.859
1642303682.995,-783.203,34.180,-369.629,58.594,32.227
1642303682.999,-161.133,10.742,-683.594,24.414,24.902
1642303683.003,766.602,70.312,-618.652,6.836,17.090
1642303683.007,331.055,87.402,-324.707,22.949,21.484
1642303683.008,-669.922,38.086,-466.309,41.992,34.180
1642303683.012,-413.086,38.086,-570.801,16.602,32.715
1642303683.016,658.691,102.539,-272.949,2.930,41.504
1642303683.020,602.051,92.773,-17.578,2.930,56.641
1642303683.024,-481.934,20.996,-298.828,23.926,31.738
1642303683.028,-629.395,12.695,-594.238,38.086,29.785
1642303683.032,402.832,52.734,-550.293,8.301,28.320
1642303683.035,753.418,94.727,-229.004,7.324,65.918
1642303683.039,-219.238,27.832,-323.242,25.391,62.988
1642303683.043,-732.910,-0.488,-731.934,43.945,41.016
1642303683.047,133.789,80.078,-497.070,22.461,48.340
1642303683.051,833.496,74.707,-157.715,9.766,39.062
1642303683.055,104.004,48.340,-225.586,23.438,19.043
1642303683.059,-754.395,21.973,-513.184,30.762,-9.766
1642303683.063,-186.035,47.852,-520.020,17.090,5.859
1642303683.067,773.438,83.984,-209.961,18.066,29.297
1642303683.071,380.371,39.062,-303.223,30.273,0.488
1642303683.075,-645.020,23.926,-576.172,51.270,15.625
1642303683.079,-472.656,47.852,-602.051,24.414,21.973
1642303683.082,588.379,79.102,-349.121,2.930,6.836
1642303683.086,626.953,40.039,-368.164,30.273,23.438
1642303683.090,-416.992,38.574,-569.336,58.594,20.508
1642303683.094,-631.836,86.914,-280.762,42.969,47.363
1642303683.098,344.238,64.453,-170.898,-16.113,38.574
1642303683.099,775.391,53.711,-166.504,-11.230,16.602
1642303683.103,-127.441,58.105,-154.297,26.855,31.738
1642303683.107,-753.418,33.691,-252.441,47.363,41.504
1642303683.111,21.484,24.414,-354.004,28.320,27.344
1642303683.115,813.965,48.828,-258.789,0.000,24.414
1642303683.119,175.293,35.645,-265.137,16.602,43.945
1642303683.123,-747.070,19.043,-513.184,44.434,45.410
1642303683.126,-278.809,3.906,-597.656,13.672,25.879
1642303683.130,718.262,2.441,-730.469,-9.277,19.043
1642303683.134,455.566,70.801,-525.391,-1.465,29.297
1642303683.138,-576.172,65.430,-235.352,40.039,50.293
1642303683.142,-502.441,37.598,-318.848,48.828,49.805
1642303683.144,558.105,59.082,-208.496,6.836,47.363
1642303683.148,692.383,54.688,-10.254,16.602,52.246
1642303683.152,-354.980,15.137,-144.531,35.156,40.527
1642303683.156,-693.359,5.859,-408.203,28.809,29.297
1642303683.160,270.020,46.387,-360.840,-4.395,24.414
1642303683.164,813.477,49.316,-250.488,-3.906,27.344
1642303683.168,-42.969,21.484,-436.035,32.227,13.672
1642303683.171,-781.250,-22.949,-815.430,29.297,-6.836
1642303683.175,-68.848,37.109,-830.566,6.836,-11.719
1642303683.179,829.590,120.605,-245.117,17.578,23.926
1642303683.183,279.785,47.852,-139.648,19.531,28.320
1642303683.187,-707.031,8.301,-437.500,43.945,21.484
1642303683.188,-334.473,56.641,-378.418,34.180,31.738
1642303683.192,711.426,64.941,-135.742,-5.371,18.555
1642303683.196,527.344,13.672,-258.789,7.812,-20.508
1642303683.200,-536.621,11.230,-468.750,49.805,1.465
1642303683.204,-570.801,32.227,-419.922,51.758,26.367
1642303683.208,476.562,39.062,-355.469,-1.953,16.602
1642303683.212,714.355,15.625,-483.887,-13.672,3.906
1642303683.215,-295.410,8.789,-662.109,21.484,-0.488
1642303683.219,-701.172,45.898,-569.824,44.922,-3.418
1642303683.223,212.402,77.148,-268.066,23.438,16.113
1642303683.227,822.754,27.344,-254.883,12.695,30.762
1642303683.231,27.344,-17.578,-694.824,26.367,4.395
1642303683.234,-756.348,53.711,-596.680,37.598,22.949
1642303683.238,-119.629,70.312,-266.602,17.578,37.109
1642303683.242,786.133,62.500,-160.645,2.930,31.250
1642303683.246,311.523,48.340,-189.453,12.695,17.578
1642303683.250,-677.734,25.391,-347.168,44.434,22.461
1642303683.254,-419.922,21.484,-460.449,45.898,38.574
1642303683.258,617.676,21.973,-623.047,24.902,23.438
1642303683.261,583.984,65.430,-516.113,35.156,41.992
1642303683.265,-459.961,76.172,-268.066,47.852,32.227
1642303683.269,-614.746,36.133,-343.750,37.598,22.461
1642303683.273,401.855,48.340,-268.066,3.906,42.969
1642303683.277,750.000,56.641,-153.809,2.930,12.207
1642303683.279,-207.520,38.574,-220.215,28.320,0.488
1642303683.283,-743.164,-0.488,-501.465,32.227,2.441
1642303683.287,109.863,23.438,-565.430,15.625,9.277
1642303683.291,838.379,69.824,-272.461,19.531,7.812
1642303683.295,106.934,50.293,-254.883,41.992,-10.742
1642303683.299,-759.277,0.977,-522.949,63.965,28.809
1642303683.303,-219.727,-3.906,-873.047,31.250,28.320
1642303683.306,786.621,89.355,-545.410,-3.418,22.461
1642303683.310,433.594,82.520,-138.672,3.906,31.250
1642303683.314,-640.137,22.461,-417.969,26.855,-4.395
1642303683.318,-476.562,40.527,-516.602,20.996,0.977
1642303683.322,599.609,75.195,-217.773,-3.906,24.414
1642303683.339,642.090,59.082,-81.543,11.719,20.508
1642303683.343,-418.457,30.273,-242.676,43.945,41.992
1642303683.347,-661.133,33.691,-369.141,48.828,51.270
1642303683.351,332.520,57.129,-242.188,13.672,26.367
1642303683.355,769.531,43.945,-143.066,2.441,25.879
1642303683.359,-155.273,-37.598,-613.281,29.297,0.000
1642303683.363,-775.879,-6.348,-939.941,43.457,-10.742
1642303683.366,27.344,90.332,-501.953,27.344,21.484
1642303683.370,844.238,66.406,-133.789,16.113,39.551
1642303683.374,185.059,17.578,-336.426,0.000,16.602
1642303683.378,-757.324,37.598,-509.277,17.090,13.672
1642303683.382,-289.062,61.523,-313.965,21.973,34.180
1642303683.384,724.121,42.969,-222.168,3.418,20.508
1642303683.388,464.355,30.273,-248.535,10.254,28.320
1642303683.392,-592.773,27.344,-353.027,29.785,21.484
1642303683.396,-539.551,40.039,-355.957,41.504,32.227
1642303683.400,509.277,51.270,-231.445,22.461,54.688
1642303683.404,655.762,29.785,-312.988,18.555,41.016
1642303683.408,-360.840,16.602,-526.367,31.250,27.832
1642303683.411,-696.289,28.809,-637.695,33.203,27.832
1642303683.415,259.766,31.738,-634.766,20.508,10.742
1642303683.419,788.574,34.668,-750.977,2.441,-1.953
1642303683.423,-74.219,86.426,-557.129,14.648,24.902
1642303683.427,-772.949,73.242,-364.746,39.551,15.137
1642303683.429,-63.477,62.500,-386.719,17.090,9.277
1642303683.433,797.852,80.566,-200.684,14.160,22.949
1642303683.437,257.324,57.617,-93.262,32.227,32.227
1642303683.441,-710.938,15.625,-267.090,50.781,26.367
1642303683.445,-338.379,15.137,-437.988,20.996,13.184
1642303683.449,695.801,49.805,-355.957,-5.371,41.016
1642303683.453,512.695,49.316,-299.316,18.555,52.246
1642303683.456,-548.340,25.391,-397.949,33.203,29.785
1642303683.460,-590.820,-10.254,-752.441,21.484,8.789
1642303683.464,465.332,45.410,-700.195,-16.113,3.906
1642303683.468,739.746,90.820,-240.723,-14.160,28.809
1642303683.472,-281.250,20.508,-411.133,20.508,19.043
1642303683.489,-723.145,17.578,-666.504,35.156,-12.207
1642303683.493,207.031,88.867,-420.410,16.602,-0.488
1642303683.497,843.750,109.375,-58.105,17.090,30.762
1642303683.501,36.133,60.059,-181.152,28.320,23.926
1642303683.505,-763.184,26.367,-453.613,52.734,7.812
1642303683.509,-125.977,44.922,-482.910,40.039,14.160
1642303683.513,788.574,71.777,-335.938,23.438,28.809
1642303683.516,324.707,34.180,-434.082,29.297,15.137
1642303683.520,-675.781,14.160,-654.785,36.621,-0.488
1642303683.524,-413.574,67.383,-461.426,28.809,17.578
1642303683.528,649.902,96.191,-115.234,5.859,43.457
1642303683.532,578.125,33.203,-269.531,7.812,18.066
1642303683.519,-497.070,17.090,-535.645,32.227,36.133
1642303683.523,-633.301,58.594,-423.828,35.156,75.195
1642303683.527,388.672,66.895,-257.324,4.395,46.387
1642303683.531,741.699,62.500,-240.234,-6.348,26.855
1642303683.535,-214.844,51.758,-345.215,19.043,38.574
1642303683.539,-743.164,47.852,-397.949,36.621,64.941
1642303683.543,93.750,58.594,-429.199,10.742,42.969
1642303683.546,810.059,67.871,-337.891,4.395,15.137
1642303683.550,124.512,67.383,-306.152,20.996,19.043
1642303683.554,-720.703,58.105,-323.242,47.363,30.273
1642303683.558,-208.496,37.598,-349.121,17.578,14.160
1642303683.562,731.445,15.137,-582.520,-12.695,-9.277
1642303683.564,395.020,60.059,-552.734,17.578,11.230
1642303683.568,-618.164,63.477,-311.523,56.152,32.715
1642303683.572,-471.191,25.879,-422.852,50.293,19.043
1642303683.576,594.238,55.664,-336.426,16.113,26.367
1642303683.580,646.973,64.453,-168.945,10.254,52.734
1642303683.584,-413.574,18.066,-418.945,19.043,18.066
1642303683.588,-658.203,-5.859,-699.219,28.320,7.812
1642303683.591,317.871,-1.465,-915.039,11.230,-2.930
1642303683.595,780.273,83.008,-600.098,-7.812,8.789
1642303683.599,-110.352,81.543,-193.359,17.090,40.039
1642303683.603,-747.070,30.273,-351.074,42.480,32.715
1642303683.607,31.738,56.641,-312.988,20.996,37.109
1642303683.609,816.895,67.383,-36.621,27.344,43.457
1642303683.613,179.199,25.391,-78.125,25.391,28.320
1642303683.617,-740.723,-10.254,-431.152,29.785,2.441
1642303683.621,-289.551,21.973,-513.672,40.039,-1.953
1642303683.625,727.051,49.316,-203.613,24.414,32.715
1642303683.629,464.355,20.020,-172.852,26.855,50.781
1642303683.633,-604.980,-36.133,-685.059,33.203,38.086
1642303683.636,-541.016,5.859,-909.668,17.090,30.762
1642303683.640,557.617,97.656,-386.719,12.207,31.250
1642303683.644,711.426,54.688,-90.820,14.160,26.855
1642303683.648,-341.309,0.488,-381.836,28.320,12.695
1642303683.652,-676.758,25.391,-519.531,27.344,2.441
1642303683.668,278.809,59.082,-274.414,-0.977,17.090
1642303683.672,821.777,45.410,-131.348,9.277,39.551
1642303683.676,-31.738,12.695,-316.895,24.902,13.672
1642303683.680,-734.375,31.250,-404.297,39.062,23.438
1642303683.684,-24.902,51.270,-298.340,10.742,58.105
1642303683.688,808.594,17.578,-370.605,-10.254,40.039
1642303683.692,256.348,-2.930,-728.516,15.137,-3.906
1642303683.695,-682.617,51.758,-625.000,52.734,26.855
1642303683.699,-327.148,55.176,-312.500,48.340,38.086
1642303683.703,710.938,37.598,-301.758,4.395,-3.906
1642303683.707,554.199,48.828,-333.984,5.859,16.113
1642303683.711,-530.762,58.594,-288.574,43.945,56.152
1642303683.714,-584.473,50.781,-257.324,45.898,45.410
1642303683.718,456.543,47.852,-369.141,24.414,12.207
1642303683.722,717.285,72.754,-317.871,16.113,28.320
1642303683.726,-275.879,61.523,-241.211,37.598,38.086
1642303683.730,-725.098,31.738,-337.402,44.434,33.691
1642303683.734,169.922,38.086,-383.789,13.672,36.621
1642303683.738,815.430,57.129,-377.930,16.602,32.715
1642303683.741,49.316,63.477,-245.605,24.414,65.430
1642303683.745,-738.281,26.855,-268.066,33.691,62.500
1642303683.749,-135.254,-15.137,-683.594,16.602,5.371
1642303683.753,773.926,51.270,-635.742,-6.836,5.371
1642303683.757,344.238,91.797,-132.812,14.648,59.570
1642303683.758,-659.180,16.113,-276.367,35.156,50.781
1642303683.762,-422.852,-5.371,-604.980,7.812,2.930
1642303683.766,630.859,59.082,-396.484,-10.254,10.742
1642303683.770,590.820,70.801,-85.449,0.488,36.133
1642303683.774,-480.957,-9.766,-348.633,23.438,14.648
1642303683.778,-645.996,-26.367,-721.191,25.879,5.859
1642303683.782,391.602,54.199,-596.191,3.418,3.906
1642303683.785,769.531,85.938,-229.492,9.766,6.348
1642303683.789,-216.309,4.395,-360.840,19.531,17.578
1642303683.793,-772.949,-17.578,-797.363,28.809,19.531
1642303683.797,109.863,71.777,-528.809,-0.977,19.043
1642303683.801,831.055,72.754,-106.445,-11.719,29.785
1642303683.804,85.449,27.832,-170.410,17.578,34.180
1642303683.808,-768.555,21.973,-325.684,48.828,52.734
1642303683.812,-213.867,48.340,-246.582,24.414,49.316
1642303683.816,756.348,51.758,-96.191,-16.602,51.758
1642303683.820,401.367,20.996,-268.066,-6.836,53.711
1642303683.824,-631.836,18.555,-569.824,28.320,33.691
1642303683.828,-480.469,47.363,-606.934,38.574,28.320
1642303683.831,577.148,77.637,-360.352,14.648,30.273
1642303683.835,614.746,25.391,-537.109,-14.160,-14.160
1642303683.839,-422.852,37.109,-728.516,11.719,-5.371
1642303683.843,-650.391,82.031,-370.117,35.645,35.645
1642303683.847,326.172,61.035,-226.562,-6.348,27.344
1642303683.879,768.555,60.059,-136.719,-15.137,41.992
1642303683.883,-135.254,49.805,-114.258,0.488,54.688
1642303683.887,-753.906,31.250,-231.934,19.043,50.781
1642303683.891,12.207,36.621,-306.641,5.371,44.922
1642303683.895,802.246,49.805,-220.215,-16.602,43.945
1642303683.899,176.758,27.832,-294.922,3.418,36.621
1642303683.903,-737.305,10.742,-578.125,19.531,24.414
1642303683.906,-291.504,10.742,-669.922,-9.766,35.645
1642303683.910,702.637,26.855,-732.910,-23.438,44.922
1642303683.914,468.262,92.285,-482.910,-4.395,35.645
1642303683.918,-579.590,71.777,-283.203,33.691,42.480
1642303683.922,-528.320,35.645,-470.703,18.066,18.066
1642303683.894,545.898,71.289,-298.340,-13.184,21.484
1642303683.898,701.172,69.824,15.137,6.836,55.176
1642303683.902,-338.379,20.020,-133.789,32.715,27.344
1642303683.906,-701.172,21.973,-399.414,27.832,25.391
1642303683.910,243.164,61.035,-256.836,-4.395,58.105
1642303683.914,781.738,37.109,-194.336,1.465,36.621
1642303683.918,-71.777,11.230,-475.098,39.062,8.789
1642303683.921,-777.832,28.320,-627.930,50.293,22.461
1642303683.925,-64.453,71.289,-395.996,15.137,39.062
1642303683.929,793.945,68.359,-160.156,-0.977,23.438
1642303683.933,247.559,20.020,-282.715,16.113,11.230
1642303683.937,-703.613,11.719,-545.898,46.875,-0.977
1642303683.939,-348.633,56.152,-493.164,28.320,3.418
1642303683.943,688.965,96.191,-145.020,6.348,35.156
1642303683.947,531.738,45.898,-104.004,11.230,35.156
1642303683.951,-550.781,-44.922,-717.773,23.438,-22.949
1642303683.955,-583.008,36.621,-837.891,24.414,-12.695
1642303683.959,462.402,99.121,-330.078,-9.766,45.410
1642303683.963,708.496,38.574,-277.832,1.465,46.875
1642303683.966,-276.367,10.742,-657.227,17.090,28.809
1642303683.970,-715.820,60.547,-571.289,7.324,45.898
1642303683.974,162.598,91.309,-94.238,-9.277,68.359
1642303683.978,779.785,75.195,-3.418,-25.879,49.805
1642303683.982,-15.625,44.434,-116.699,-29.297,33.691
1642303683.984,-817.383,-0.488,-292.969,-22.461,30.762
1642303683.988,-210.938,-1.465,-392.578,-44.434,10.742
1642303683.992,674.805,37.598,-313.477,-87.402,19.531
1642303683.996,233.887,18.066,-250.977,-90.332,31.738
1642303684.000,-760.254,-8.301,-261.719,-73.242,20.508
1642303684.004,-545.410,7.812,-315.918,-122.559,37.598
1642303684.008,448.730,-20.996,-507.324,-192.383,13.184
1642303684.011,398.438,0.977,-479.004,-190.918,3.906
1642303684.015,-632.324,47.363,-131.348,-135.254,38.574
1642303684.019,-816.895,-1.465,-160.156,-159.668,24.414
1642303684.023,181.152,11.230,-171.387,-239.746,7.324
1642303684.027,526.367,60.059,44.922,-240.723,12.695
1642303684.029,-444.824,35.645,56.152,-234.375,17.578
1642303684.033,-994.141,-21.484,-181.641,-237.305,21.484
1642303684.037,-179.199,6.836,-131.836,-247.559,53.711
1642303684.041,539.062,32.715,38.086,-273.438,52.734
1642303684.045,-145.020,-6.836,-146.484,-255.371,-3.418
1642303684.049,-1000.000,-49.316,-461.426,-225.098,-18.555
1642303684.053,-496.582,-65.430,-915.039,-254.395,-46.875
1642303684.056,514.160,67.383,-544.922,-271.973,4.395
1642303684.060,171.875,101.074,83.008,-254.395,61.523
1642303684.064,-857.422,25.391,-122.559,-213.379,25.391
1642303684.068,-692.871,40.527,-226.074,-212.402,33.691
1642303684.072,375.488,65.430,13.672,-220.703,36.621
1642303684.089,411.621,45.410,98.633,-203.613,26.855
1642303684.093,-640.137,11.230,-142.090,-183.594,34.180
1642303684.097,-873.047,12.695,-377.930,-156.250,15.625
1642303684.101,129.395,52.734,-184.082,-163.086,25.879
1642303684.105,579.102,35.645,-63.477,-183.105,40.039
1642303684.109,-334.473,-0.977,-422.852,-175.781,26.855
1642303684.113,-942.871,21.973,-663.574,-142.578,39.062
1642303684.116,-150.391,78.613,-468.262,-141.113,35.156
1642303684.120,652.832,97.656,-88.379,-154.785,31.738
1642303684.124,12.207,9.277,-410.156,-144.043,11.230
1642303684.128,-882.812,21.973,-714.355,-96.191,14.648
1642303684.132,-403.320,91.797,-346.191,-106.934,30.762
1642303684.134,594.238,86.426,-108.887,-120.605,41.992
1642303684.138,342.285,74.219,-80.078,-92.773,55.664
1642303684.142,-703.125,68.848,-196.289,-67.383,45.898
1642303684.146,-647.461,63.965,-271.973,-59.570,34.668
1642303684.150,410.156,77.637,-184.082,-76.660,67.383
1642303684.154,585.449,43.945,-250.000,-70.801,57.129
1642303684.158,-411.621,20.020,-477.539,-41.504,32.227
1642303684.161,-760.254,51.758,-437.012,-31.250,47.852
1642303684.165,170.410,25.879,-409.180,-53.223,24.902
1642303684.169,717.773,8.789,-620.605,-51.270,13.672
1642303684.173,-92.773,56.641,-514.160,-16.113,15.625
1642303684.177,-789.551,49.316,-369.141,10.254,15.137
1642303684.179,-100.586,43.457,-453.125,-11.719,26.367
1642303684.183,772.949,72.754,-298.828,-0.977,43.457
1642303684.187,251.953,58.105,-135.254,10.254,27.344
1642303684.191,-722.656,12.695,-301.758,31.250,20.996
1642303684.195,-373.535,8.301,-412.109,30.762,29.297
1642303684.199,666.504,23.926,-386.230,13.672,20.996
1642303684.203,548.340,14.648,-411.621,34.668,15.625
1642303684.206,-507.324,4.395,-407.227,73.730,63.477
1642303684.210,-583.008,-44.434,-672.363,98.145,53.223
1642303684.214,489.746,-12.695,-746.094,85.938,-10.254
1642303684.218,791.016,45.898,-225.586,87.402,22.949
1642303684.222,-208.008,-34.180,-265.137,113.770,23.926
1642303684.225,-648.926,-68.359,-583.008,126.953,28.809
1642303684.229,262.695,-23.438,-452.637,110.352,46.387
1642303684.233,912.109,-19.043,-150.391,124.023,35.156
1642303684.237,137.207,-74.219,-313.477,150.391,32.227
1642303684.241,-651.855,-90.332,-627.930,164.551,45.410
1642303684.245,-12.207,-52.734,-636.719,150.879,26.855
1642303684.249,937.012,-33.691,-495.117,152.344,10.254
1642303684.252,496.094,-62.500,-498.535,170.410,41.504
1642303684.256,-516.113,-84.473,-866.699,196.777,16.113
1642303684.260,-256.836,-4.883,-722.656,194.824,9.766
1642303684.264,798.340,32.715,-233.887,174.805,39.062
1642303684.268,774.902,5.371,-161.133,194.336,45.898
1642303684.269,-278.320,-23.926,-351.562,225.586,34.668
1642303684.273,-443.359,-29.297,-454.590,230.957,6.348
1642303684.277,586.426,-9.277,-312.012,198.242,26.855
1642303684.281,945.312,-8.301,-263.184,192.871,45.410
1642303684.285,4.395,-28.320,-450.195,219.238,9.277
1642303684.289,-542.969,-31.250,-645.508,231.445,17.090
1642303684.293,286.621,1.953,-582.520,223.633,48.340
1642303684.296,-995.117,-28.320,-641.113,205.078,15.625
1642303684.300,314.453,-32.227,-870.605,192.383,-3.906
1642303684.304,-533.203,32.715,-579.102,214.355,31.738
1642303684.308,-21.484,10.254,-432.129,213.379,33.203
1642303684.312,931.152,7.812,-409.180,204.102,6.836
1642303684.314,590.820,21.973,-228.516,196.289,31.250
1642303684.318,-441.406,-7.812,-250.488,199.707,56.152
1642303684.322,-312.988,-33.203,-485.352,194.824,16.602
1642303684.326,733.398,4.395,-420.410,165.527,24.902
1642303684.330,800.293,8.301,-210.449,166.504,36.621
1642303684.334,-254.883,-29.297,-399.414,189.941,48.340
1642303684.338,-522.461,-49.805,-663.574,180.664,60.059
1642303684.341,457.031,-52.734,-938.477,139.160,18.066
1642303684.345,939.453,37.109,-655.273,136.719,31.250
1642303684.349,51.758,32.227,-254.395,167.969,43.945
1642303684.353,-612.305,-14.648,-456.543,172.852,31.250
1642303684.357,147.461,14.160,-435.059,139.160,42.969
1642303684.359,943.848,31.738,-109.375,136.719,62.500
1642303684.363,314.941,1.465,-107.910,145.508,48.340
1642303684.367,-604.980,-27.832,-457.520,164.062,16.113
1642303684.371,-161.133,5.859,-540.039,138.184,13.672
1642303684.375,853.027,40.039,-285.645,100.586,12.695
1642303684.379,582.031,7.812,-332.031,105.957,8.789
1642303684.383,-505.371,-50.781,-796.875,124.512,2.930
1642303684.386,-457.031,0.488,-888.672,123.535,6.348
1642303684.390,618.652,78.125,-376.465,73.730,24.902
1642303684.394,784.668,35.156,-204.590,71.289,50.781
1642303684.398,-253.418,-7.812,-539.551,108.887,19.043
1642303684.402,-619.141,20.996,-592.773,105.957,0.488
1642303684.419,325.684,58.105,-292.969,81.543,19.043
1642303684.423,872.559,27.832,-190.918,64.941,18.066
1642303684.427,18.066,-10.742,-374.023,80.078,2.930
1642303684.431,-702.637,12.695,-504.395,109.375,-7.324
1642303684.435,-12.695,46.875,-355.957,93.750,12.695
1642303684.439,834.961,15.625,-310.547,85.449,36.133
1642303684.443,307.129,-10.742,-626.953,72.754,44.434
1642303684.446,-636.230,38.574,-583.496,99.609,53.223
1642303684.450,-297.852,59.570,-287.598,100.586,57.617
1642303684.454,739.746,55.664,-175.781,57.617,51.758
1642303684.458,581.055,49.316,-120.605,60.059,58.105
1642303684.462,-508.789,36.133,-156.250,69.824,77.148
1642303684.464,-564.941,21.973,-325.195,62.988,72.754
1642303684.468,488.770,21.973,-491.211,29.785,16.602
1642303684.472,753.418,46.387,-420.898,24.414,4.883
1642303684.476,-233.398,51.758,-245.117,64.941,48.828
1642303684.480,-689.941,21.484,-330.566,76.172,41.016
1642303684.484,179.688,11.719,-465.332,27.832,13.184
1642303684.488,824.707,32.227,-424.805,27.344,22.461
1642303684.491,70.801,38.086,-360.352,56.641,10.742
1642303684.495,-718.750,8.789,-383.301,79.590,8.789
1642303684.499,-116.699,-31.738,-708.984,40.039,-1.465
1642303684.503,809.570,36.621,-646.484,21.973,1.953
1642303684.507,389.648,82.520,-115.234,56.641,52.246
1642303684.509,-616.699,2.441,-271.484,72.266,37.598
1642303684.513,-397.461,1.953,-491.211,57.617,9.277
1642303684.517,650.391,51.758,-243.652,22.949,24.902
1642303684.521,609.375,41.992,-146.973,24.414,31.738
1642303684.525,-469.238,-8.301,-410.645,53.711,27.832
1642303684.529,-631.348,-25.391,-676.270,54.688,28.320
1642303684.533,411.621,38.086,-530.273,23.438,34.180
1642303684.536,783.691,71.777,-141.602,15.137,49.805
1642303684.540,-184.570,-4.395,-354.492,41.016,2.441
1642303684.544,-730.469,-18.555,-842.285,70.801,-16.113
1642303684.548,119.629,80.566,-496.582,45.410,22.461
1642303684.552,849.121,84.961,-31.250,36.133,41.992
1642303684.554,135.254,37.109,-99.609,54.688,57.617
1642303684.558,-737.305,15.137,-307.617,62.012,50.293
1642303684.562,-202.148,41.992,-239.746,44.922,44.434
1642303684.566,779.297,54.199,-69.824,42.969,37.598
1642303684.570,446.777,24.414,-135.742,51.270,31.738
1642303684.574,-592.773,-18.066,-513.672,39.062,0.977
1642303684.578,-463.379,-1.465,-776.855,32.227,-22.949
1642303684.581,585.938,60.059,-409.668,25.879,38.574
1642303684.585,638.672,-0.977,-444.336,19.043,19.043
1642303684.589,-400.879,-4.395,-803.711,35.156,-2.930
1642303684.593,-645.508,74.707,-484.375,39.062,30.762
1642303684.597,333.008,63.477,-209.961,14.648,31.250
1642303684.599,797.363,51.270,-141.113,20.996,26.855
1642303684.603,-97.656,41.016,-220.215,30.762,-2.441
1642303684.607,-731.934,41.016,-302.734,54.688,19.043
1642303684.611,22.949,40.527,-340.332,19.043,26.855
1642303684.615,819.824,51.270,-254.883,-1.465,16.602
1642303684.619,203.613,40.527,-295.410,28.809,27.344
1642303684.623,-707.031,41.504,-443.359,58.594,52.734
1642303684.626,-272.949,29.297,-486.328,37.109,42.480
1642303684.630,721.680,28.809,-630.859,-13.672,4.395
1642303684.634,480.469,78.613,-528.320,0.000,6.836
1642303684.638,-576.660,76.660,-307.129,55.176,47.852
1642303684.642,-541.992,42.480,-429.688,49.805,34.180
1642303684.643,530.273,62.988,-456.543,11.230,-5.859
1642303684.647,713.379,93.262,-124.023,12.695,15.137
1642303684.651,-313.477,50.781,-172.852,39.551,23.926
1642303684.655,-687.012,37.109,-387.695,56.152,33.691
1642303684.659,236.328,69.336,-291.504,31.738,38.574
1642303684.663,797.852,62.012,-212.891,15.625,42.480
1642303684.667,-42.480,42.969,-312.500,4.883,43.457
1642303684.670,-777.344,-3.418,-717.773,10.742,11.719
1642303684.674,-69.824,38.574,-782.715,1.953,21.484
1642303684.678,812.500,105.469,-177.734,-0.488,48.340
1642303684.682,256.348,40.527,-128.906,19.043,21.973
1642303684.686,-722.168,-16.113,-484.375,36.133,14.160
1642303684.690,-371.094,23.438,-538.574,26.855,37.109
1642303684.694,689.453,84.961,-179.199,-2.441,45.410
1642303684.698,540.039,35.645,-108.887,0.000,34.668
1642303684.702,-537.109,-14.648,-499.023,42.969,17.578
1642303684.706,-575.195,24.414,-529.785,40.039,17.090
1642303684.710,477.051,48.828,-348.145,-1.465,25.879
1642303684.714,718.750,27.344,-363.770,9.277,52.734
1642303684.717,-290.527,3.906,-657.227,45.898,43.457
1642303684.721,-724.121,55.176,-600.098,43.945,27.832
1642303684.725,175.293,68.848,-235.840,3.906,35.156
1642303684.729,827.637,55.664,-128.418,-5.859,38.574
1642303684.733,60.059,42.969,-178.223,18.555,45.410
1642303684.734,-747.070,27.832,-291.016,49.316,34.180
1642303684.738,-141.113,47.363,-315.918,29.785,14.648
1642303684.742,783.691,53.711,-264.160,2.930,29.297
1642303684.746,357.910,40.039,-361.328,8.789,34.668
1642303684.750,-655.762,38.574,-386.230,34.668,37.598
1642303684.754,-422.363,26.855,-454.102,37.109,26.855
1642303684.758,629.883,7.812,-637.695,4.883,17.090
1642303684.761,599.609,19.043,-785.156,-3.906,-14.648
1642303684.765,-447.266,66.895,-543.945,41.016,4.395
1642303684.769,-625.000,41.016,-396.973,55.664,24.414
1642303684.773,383.789,44.922,-325.684,15.625,18.555
1642303684.777,761.230,61.035,-122.070,0.000,32.715
1642303684.778,-191.406,31.738,-114.258,7.812,50.293
1642303684.782,-762.695,0.488,-337.891,25.391,50.293
1642303684.786,85.449,30.762,-370.605,10.254,54.199
1642303684.790,816.406,72.754,-108.887,0.000,62.500
1642303684.794,100.586,37.598,-115.723,21.484,35.156
1642303684.798,-753.418,-39.551,-567.383,38.574,-0.977
1642303684.802,-228.027,-24.414,-929.688,24.902,6.348
1642303684.805,760.742,76.660,-502.441,21.973,46.875
1642303684.809,419.434,52.246,-84.473,30.762,41.992
1642303684.813,-631.836,-23.438,-390.625,52.734,34.668
1642303684.817,-486.328,1.953,-584.473,42.969,40.039
1642303684.821,583.984,66.895,-225.098,21.484,47.363
1642303684.839,650.391,46.875,-18.066,36.133,59.082
1642303684.843,-392.578,-4.883,-279.297,38.574,36.133
1642303684.847,-668.945,-4.395,-498.535,29.785,12.695
1642303684.851,307.617,40.527,-340.820,-4.395,17.090
1642303684.855,778.809,38.086,-150.879,-7.812,25.391
1642303684.859,-130.371,-15.625,-402.832,18.555,14.648
1642303684.863,-765.137,-5.371,-689.453,35.156,33.691
1642303684.866,13.184,48.828,-494.629,17.578,24.902
1642303684.870,822.754,44.434,-244.629,11.230,14.648
1642303684.874,191.406,-36.621,-625.977,36.621,-11.719
1642303684.878,-726.074,-10.742,-910.156,62.988,-25.879
1642303684.882,-257.812,84.473,-470.215,37.598,18.555
1642303684.884,738.770,69.824,-149.414,6.836,39.551
1642303684.888,500.488,40.039,-158.691,3.906,34.180
1642303684.892,-551.270,39.551,-281.738,30.762,22.461
1642303684.896,-532.715,50.781,-307.129,25.879,31.250
1642303684.900,529.297,42.480,-216.309,2.441,46.387
1642303684.904,688.477,16.602,-259.766,19.043,48.828
1642303684.908,-337.402,-1.953,-482.910,32.715,27.832
1642303684.911,-683.594,24.414,-505.859,35.156,19.043
1642303684.915,241.211,19.043,-359.863,9.277,53.223
1642303684.919,781.738,-10.254,-573.730,-5.371,1.465
1642303684.923,-30.273,51.270,-486.328,17.578,-10.254
1642303684.927,-750.000,25.391,-414.551,37.598,16.113
1642303684.928,-83.496,3.906,-625.488,19.043,3.906
1642303684.932,793.457,55.176,-415.039,17.578,9.277
1642303684.936,270.020,54.199,-150.879,35.645,19.531
1642303684.940,-704.102,1.465,-322.266,46.875,-3.906
1642303684.944,-366.699,0.977,-461.914,24.902,16.113
1642303684.948,667.480,29.785,-395.020,9.277,24.902
1642303684.952,542.480,33.691,-345.703,27.344,20.020
1642303684.955,-509.766,19.043,-335.449,48.340,53.223
1642303684.959,-585.938,-25.879,-689.453,30.273,12.207
1642303684.963,456.543,39.062,-680.664,-6.348,2.441
1642303684.967,738.770,100.098,-132.812,4.395,30.762
1642303684.971,-254.395,28.809,-180.176,31.738,20.508
1642303684.974,-717.773,11.230,-400.879,39.551,17.090
1642303684.978,184.570,61.035,-250.000,12.695,29.785
1642303684.982,841.309,63.477,-35.156,13.672,71.777
1642303684.986,58.105,-4.883,-270.508,38.574,30.762
1642303684.990,-751.465,-24.414,-611.816,43.945,-12.695
1642303684.994,-156.738,19.043,-589.844,14.160,-5.859
1642303684.998,770.020,43.457,-414.551,0.977,-10.254
1642303685.001,327.148,0.977,-467.285,10.742,-7.812
1642303685.005,-686.035,-17.090,-786.133,46.387,-4.395
1642303685.009,-419.434,70.312,-559.570,40.039,24.902
1642303685.013,638.184,91.797,-84.473,15.625,44.922
1642303685.017,603.027,47.363,-77.637,30.762,26.855
1642303685.019,-454.590,40.039,-272.461,40.039,24.414
1642303685.023,-625.977,51.270,-305.664,42.480,27.832
1642303685.027,395.996,57.129,-173.828,23.438,28.320
1642303685.031,778.320,59.082,-130.859,17.090,31.738
1642303685.035,-168.945,38.574,-231.934,36.621,41.992
1642303685.039,-734.375,12.207,-473.145,45.410,33.203
1642303685.043,83.008,39.062,-512.207,37.109,29.785
1642303685.046,797.363,14.648,-601.074,24.902,8.789
1642303685.050,103.516,22.461,-863.281,13.672,-25.879
1642303685.054,-736.328,97.168,-547.852,30.762,22.949
1642303685.058,-217.773,73.730,-347.168,13.672,18.555
1642303685.062,758.789,69.824,-272.461,1.465,5.859
1642303685.064,436.035,79.102,-123.535,19.531,28.809
1642303685.068,-610.352,52.246,-197.754,49.805,30.762
1642303685.072,-487.305,34.180,-361.328,43.457,32.227
1642303685.076,576.172,54.199,-314.453,13.184,36.133
1642303685.080,658.203,55.176,-160.645,21.484,24.414
1642303685.084,-374.512,9.766,-388.184,34.180,14.648
1642303685.088,-657.227,-13.184,-722.656,45.898,16.602
1642303685.091,298.340,22.949,-791.504,11.230,6.836
1642303685.095,791.016,90.332,-505.859,4.883,16.602
1642303685.099,-99.121,81.055,-231.934,40.527,35.156
1642303685.103,-754.883,20.020,-450.684,42.969,14.648
1642303685.107,0.977,41.992,-542.969,16.113,3.418
1642303685.108,814.453,91.797,-127.930,6.348,35.645
1642303685.112,206.543,54.688,4.395,27.344,64.941
1642303685.116,-719.727,4.883,-271.484,59.570,50.293
1642303685.120,-281.250,23.438,-435.059,32.715,12.207
1642303685.124,740.234,55.176,-242.188,10.742,7.812
1642303685.128,507.812,32.715,-205.566,29.785,41.992
1642303685.132,-564.941,-24.902,-642.578,48.340,52.734
1642303685.135,-544.434,10.254,-812.012,43.945,27.344
1642303685.139,526.855,88.379,-326.172,15.625,21.484
1642303685.143,698.730,52.246,-56.641,29.785,41.504
1642303685.147,-329.102,-7.812,-297.363,55.664,41.016
1642303685.151,-696.289,0.977,-547.852,53.711,31.738
1642303685.156,251.465,63.477,-290.039,32.715,48.828
1642303685.160,817.383,39.551,-126.465,23.438,39.062
1642303685.164,-29.297,-5.859,-380.371,37.109,25.879
1642303685.168,-752.930,19.043,-502.441,46.387,12.207
1642303685.172,-73.242,42.969,-357.422,27.832,9.277
1642303685.176,794.434,11.230,-381.348,23.926,-0.977
1642303685.180,260.742,-10.254,-715.332,37.109,-10.254
1642303685.183,-705.078,42.969,-641.602,70.312,16.113
1642303685.187,-369.141,57.129,-302.246,37.109,51.270
1642303685.191,661.133,55.176,-159.180,3.906,61.035
1642303685.195,538.086,44.434,-131.836,32.715,43.457
1642303685.199,-519.043,24.414,-218.750,57.617,33.691
1642303685.214,-589.355,27.832,-293.457,54.688,38.086
1642303685.218,455.078,38.574,-317.383,6.348,17.578
1642303685.222,734.863,33.203,-363.281,3.418,6.348
1642303685.226,-252.930,32.227,-322.266,52.734,43.457
1642303685.230,-713.379,25.879,-231.934,65.918,70.312
1642303685.234,153.320,-16.602,-511.230,28.320,44.434
1642303685.238,794.434,10.742,-598.633,7.812,47.363
1642303685.241,49.805,47.852,-318.359,29.297,24.902
1642303685.245,-748.535,2.930,-386.230,63.965,2.930
1642303685.249,-155.762,13.672,-497.070,39.062,22.949
1642303685.253,779.785,72.754,-235.352,7.812,46.387
1642303685.257,356.445,50.293,-106.445,7.324,12.695
1642303685.259,-650.879,-4.395,-417.969,31.250,-11.230
1642303685.263,-410.645,12.207,-516.113,22.461,15.137
1642303685.267,631.836,62.500,-224.609,-12.207,36.133
1642303685.271,596.191,50.781,-117.188,1.953,13.184
1642303685.275,-466.797,6.348,-376.465,30.762,5.859
1642303685.279,-641.602,8.789,-619.141,29.297,28.809
1642303685.283,377.441,54.688,-461.426,4.883,61.523
1642303685.286,759.277,62.500,-262.207,16.602,52.734
1642303685.290,-191.895,13.184,-401.855,52.246,26.367
1642303685.294,-764.648,-26.367,-878.418,27.832,8.789
1642303685.298,71.777,61.523,-747.070,-7.812,6.348
1642303685.302,822.266,91.309,-148.926,7.324,26.855
1642303685.304,126.953,38.086,-176.758,7.812,24.902
1642303685.308,-750.977,26.367,-389.160,23.926,17.090
1642303685.312,-213.379,64.453,-261.719,4.395,44.922
1642303685.316,772.461,81.055,-26.855,-21.484,60.547
1642303685.320,416.016,40.039,-107.422,1.953,30.273
1642303685.324,-639.160,-4.395,-460.449,23.926,16.113
1642303685.328,-516.113,-1.465,-689.941,4.883,-8.301
1642303685.331,560.547,52.246,-432.129,-17.578,9.277
1642303685.335,640.625,3.418,-491.699,-21.484,13.672
1642303685.339,-418.457,-18.066,-829.102,3.906,2.441
1642303685.343,-681.152,63.965,-500.488,22.949,29.785
1642303685.347,308.594,68.848,-135.742,-0.488,57.617
1642303685.349,784.180,51.758,-81.055,-6.836,36.621
1642303685.353,-95.215,54.199,-128.418,26.367,25.879
1642303685.357,-742.188,40.527,-214.844,54.199,39.551
1642303685.361,10.254,39.551,-275.879,14.648,35.645
1642303685.365,827.148,49.316,-195.801,-7.324,52.734
1642303685.369,211.426,13.184,-347.168,3.418,30.273
1642303685.373,-718.750,16.113,-536.133,29.297,22.461
1642303685.376,-301.758,8.789,-548.828,17.578,14.648
1642303685.380,696.777,5.371,-645.020,-12.207,-7.324
1642303685.384,490.723,67.383,-355.957,10.742,26.367
1642303685.388,-555.664,34.180,-174.316,32.715,43.945
1642303685.392,-557.129,-17.090,-537.598,17.090,7.812
1642303685.394,504.395,37.109,-491.699,-1.465,14.648
1642303685.398,716.309,61.523,-92.773,10.254,35.156
1642303685.402,-331.543,13.672,-180.664,37.598,24.902
1642303685.406,-718.750,11.719,-340.332,41.016,70.312
1642303685.410,229.004,26.855,-312.988,-3.906,43.457
1642303685.414,796.875,29.297,-279.785,-11.719,8.789
1642303685.418,-35.156,9.277,-374.023,24.902,37.109
1642303685.421,-777.344,-48.340,-761.230,49.805,10.742
1642303685.425,-92.285,3.418,-815.918,15.137,-7.812
1642303685.429,809.570,84.473,-221.191,-12.695,28.320
1642303685.433,294.434,23.926,-124.512,8.301,20.996
1642303685.437,-696.777,-8.789,-409.180,32.715,24.414
1642303685.440,-368.652,41.504,-343.750,10.254,45.410
1642303685.444,677.734,69.824,-67.383,-14.160,80.566
1642303685.448,530.273,16.602,-176.270,3.418,58.594
1642303685.452,-535.156,-11.230,-541.016,27.832,5.859
1642303685.456,-598.145,30.273,-520.508,21.973,14.648
1642303685.460,437.500,45.410,-343.750,-2.930,33.691
1642303685.464,714.844,15.137,-404.297,-9.766,23.926
1642303685.467,-270.508,-10.742,-722.656,0.000,6.348
1642303685.471,-725.098,40.527,-605.957,21.484,43.457
1642303685.475,156.738,64.453,-226.562,8.301,45.898
1642303685.479,812.012,50.781,-148.438,-4.395,29.785
1642303685.483,64.941,35.645,-226.562,8.789,28.809
1642303685.484,-737.793,30.273,-329.102,18.066,27.344
1642303685.488,-141.602,41.504,-270.508,0.488,41.504
1642303685.492,797.363,58.594,-173.828,-11.719,43.457
1642303685.496,370.117,51.758,-180.176,1.465,39.551
1642303685.500,-649.902,3.418,-391.113,30.273,24.902
1642303685.504,-421.387,8.789,-580.078,31.738,27.832
1642303685.508,627.930,12.207,-642.578,8.789,38.086
1642303685.511,598.633,24.902,-684.082,11.230,43.945
1642303685.515,-441.895,68.848,-385.254,44.434,70.801
1642303685.519,-621.094,32.715,-290.527,45.410,62.012
1642303685.523,388.672,42.480,-273.926,15.625,45.898
1642303685.527,772.949,57.129,-121.582,8.301,27.832
1642303685.544,-178.711,30.762,-142.578,31.738,33.203
1642303685.548,-749.512,0.000,-331.543,55.664,54.199
1642303685.552,65.918,6.836,-416.016,25.879,27.832
1642303685.556,820.801,53.711,-201.660,15.625,25.391
1642303685.560,140.625,50.293,-80.078,39.062,58.105
1642303685.564,-759.766,-25.879,-486.328,49.316,31.738
1642303685.568,-252.441,-7.812,-879.883,12.207,11.719
1642303685.571,743.652,70.801,-569.824,-6.348,30.762
1642303685.575,418.945,54.688,-283.203,13.672,32.715
1642303685.579,-626.953,5.859,-498.535,45.898,21.484
1642303685.583,-505.371,27.832,-630.371,27.832,45.410
1642303685.587,563.965,94.238,-212.891,-11.719,83.008
1642303685.588,653.809,68.359,-27.832,-0.977,44.434
1642303685.592,-387.695,37.109,-245.605,39.551,45.410
1642303685.596,-667.969,41.504,-378.418,41.504,55.176
1642303685.600,310.059,78.613,-213.867,0.488,43.945
1642303685.604,804.688,73.730,-34.180,-0.977,48.828
1642303685.608,-82.031,10.742,-354.980,10.742,25.879
1642303685.612,-750.977,3.906,-766.602,20.020,1.465
1642303685.615,9.766,70.312,-548.828,-2.930,20.020
1642303685.619,828.125,88.867,-97.168,-9.766,55.176
1642303685.623,198.242,2.441,-421.387,4.883,24.902
1642303685.627,-735.352,-5.371,-828.613,16.113,27.832
1642303685.631,-294.922,62.988,-519.043,2.930,55.176
1642303685.633,723.145,59.082,-275.391,-15.625,18.066
1642303685.637,484.375,29.297,-349.609,0.000,7.812
1642303685.641,-560.059,38.086,-357.422,36.133,43.457
1642303685.645,-522.949,49.805,-240.723,38.574,66.895
1642303685.649,512.695,38.086,-204.590,7.812,40.527
1642303685.653,676.270,6.836,-347.656,8.789,0.000
1642303685.657,-344.238,8.789,-538.086,35.156,2.930
1642303685.660,-707.520,40.527,-431.152,46.875,41.504
1642303685.664,238.281,13.672,-359.375,6.348,28.809
1642303685.668,800.781,-5.859,-576.660,-15.625,-11.230
1642303685.672,-28.320,48.340,-428.711,12.207,18.555
1642303685.676,-755.371,33.203,-269.043,54.688,60.059
1642303685.710,-76.172,26.367,-338.379,20.996,32.227
1642303685.714,793.945,41.504,-308.594,-13.672,17.578
1642303685.718,281.738,26.855,-264.160,19.043,34.180
1642303685.722,-696.777,8.301,-342.285,45.410,16.602
1642303685.726,-383.789,-1.465,-556.152,23.926,0.977
1642303685.730,663.574,33.203,-518.066,-1.953,20.020
1642303685.734,537.109,42.969,-334.473,6.348,37.598
1642303685.737,-526.855,7.324,-441.406,46.875,18.555
1642303685.741,-596.680,5.859,-660.645,37.598,-5.859
1642303685.745,447.266,69.824,-405.762,0.977,35.156
1642303685.749,749.023,89.355,-3.906,30.273,48.340
1642303685.753,-234.375,20.508,-175.293,59.570,17.578
1642303685.723,-720.215,-6.348,-595.703,53.223,5.859
1642303685.727,168.457,63.965,-503.418,29.297,13.672
1642303685.731,824.707,84.961,-53.223,27.832,46.387
1642303685.735,40.039,28.320,-116.699,32.227,48.340
1642303685.739,-761.719,1.465,-456.055,44.922,49.316
1642303685.743,-148.438,38.086,-499.512,33.203,51.758
1642303685.747,789.551,55.664,-374.512,13.184,13.672
1642303685.750,363.281,24.902,-451.660,22.461,9.766
1642303685.754,-645.508,20.996,-598.145,46.875,14.648
1642303685.758,-413.574,63.477,-471.680,29.785,10.254
1642303685.762,634.766,78.125,-152.344,4.395,38.086
1642303685.766,610.840,37.109,-159.180,11.230,37.109
1642303685.768,-449.219,16.113,-395.020,45.410,25.879
1642303685.772,-632.324,26.855,-408.203,32.715,35.645
1642303685.776,377.930,53.711,-227.051,-17.090,37.109
1642303685.780,753.418,9.766,-319.824,-13.184,20.508
1642303685.784,-207.520,-52.246,-866.211,1.953,-12.207
1642303685.788,-760.254,8.789,-901.855,29.785,15.137
1642303685.792,87.891,55.176,-498.535,15.137,56.641
1642303685.795,811.035,12.695,-532.715,-14.160,17.578
1642303685.799,109.375,14.160,-722.168,10.742,1.953
1642303685.803,-742.188,67.871,-425.293,51.758,39.062
1642303685.807,-220.215,49.805,-198.242,32.227,42.969
1642303685.811,762.207,54.199,-75.195,-4.395,49.316
1642303685.813,419.434,59.570,-13.672,-4.883,39.551
1642303685.817,-635.254,29.297,-125.000,26.855,41.504
1642303685.821,-509.277,11.719,-265.625,29.785,56.641
1642303685.825,543.457,40.527,-205.566,-7.324,52.734
1642303685.829,622.070,35.156,-50.293,-32.715,44.922
1642303685.833,-424.316,-11.719,-333.984,-9.766,21.973
1642303685.837,-713.867,-23.438,-698.730,-6.836,5.371
1642303685.840,247.070,21.973,-738.281,-55.176,14.160
1642303685.844,722.168,90.820,-291.504,-74.219,42.480
1642303685.848,-164.062,48.340,-51.758,-67.383,41.504
1642303685.852,-827.637,-5.371,-310.547,-55.176,39.062
1642303685.856,-99.609,19.043,-386.719,-94.727,27.832
1642303685.858,708.008,56.152,-102.539,-122.070,23.438
1642303685.862,95.215,26.367,16.113,-97.656,37.598
1642303685.866,-861.816,-25.391,-337.402,-107.422,42.480
1642303685.870,-440.918,-0.488,-480.957,-156.738,26.855
1642303685.874,582.031,32.715,-121.582,-155.762,31.250
1642303685.878,359.863,-8.301,-96.680,-131.836,42.969
1642303685.882,-711.914,-65.918,-645.020,-113.281,16.602
1642303685.885,-699.219,-26.855,-839.844,-141.113,1.465
1642303685.889,373.535,59.570,-275.391,-166.992,27.832
1642303685.893,580.566,27.344,-26.855,-114.746,13.184
1642303685.897,-446.777,-21.973,-314.453,-69.336,1.465
1642303685.901,-837.891,5.859,-438.965,-62.988,19.043
1642303685.904,125.488,46.875,-176.758,-87.402,30.273
1642303685.908,719.238,8.789,-129.883,-82.520,25.879
1642303685.912,-123.535,-28.320,-520.996,-52.246,-12.207
1642303685.916,-847.656,6.348,-580.078,-16.113,-0.488
1642303685.920,-153.320,24.414,-254.883,-15.625,38.086
1642303685.924,717.773,-24.414,-266.113,-36.621,21.973
1642303685.928,211.426,-50.293,-698.730,-32.227,-22.949
1642303685.931,-719.727,25.391,-580.078,30.273,41.016
1642303685.935,-379.395,50.781,-208.984,37.598,73.730
1642303685.939,651.855,44.922,-185.547,-0.977,21.973
1642303685.943,544.922,41.992,-116.699,13.184,42.480
1642303685.947,-498.047,9.277,-211.426,43.457,31.738
1642303685.963,-581.055,13.672,-327.148,57.617,23.926
1642303685.967,458.008,40.039,-259.766,30.762,38.574
1642303685.971,785.156,41.992,-126.953,35.645,50.293
1642303685.975,-193.848,10.742,-234.375,58.105,25.391
1642303685.979,-692.383,5.371,-498.047,58.105,1.953
1642303685.983,170.410,-2.441,-722.168,39.062,3.906
1642303685.987,821.777,23.438,-837.891,31.738,-6.348
1642303685.990,100.098,78.125,-503.418,58.594,5.371
1642303685.994,-694.336,39.551,-365.234,74.707,36.621
1642303685.998,-119.141,37.109,-387.207,45.410,38.574
1642303686.002,819.336,68.359,-270.020,29.297,19.531
1642303686.006,412.598,64.453,-128.418,49.316,41.504
1642303686.009,-610.840,14.160,-310.059,89.844,19.531
1642303686.013,-398.438,26.367,-479.492,69.336,23.438
1642303686.017,681.641,76.660,-181.152,31.738,64.453
1642303686.021,674.316,57.129,-19.531,51.270,47.363
1642303686.025,-410.645,6.836,-272.461,71.289,39.062
1642303686.029,-612.793,-11.719,-648.926,72.754,16.113
1642303686.033,410.645,48.340,-542.480,49.316,43.457
1642303686.036,814.941,80.566,-175.293,47.852,98.145
1642303686.040,-139.160,1.953,-357.422,70.801,24.902
1642303686.044,-730.469,-41.992,-937.012,77.148,-21.484
1642303686.048,101.562,64.941,-720.703,49.316,19.531
1642303686.052,850.098,95.215,-144.531,22.461,25.879
1642303686.068,167.480,49.316,-181.641,42.480,26.855
1642303686.072,-698.730,37.598,-334.473,98.633,42.480
1642303686.076,-194.336,53.711,-246.582,82.520,41.992
1642303686.080,803.711,64.941,-12.207,45.898,63.477
1642303686.084,493.164,17.578,-75.195,41.504,48.340
1642303686.088,-571.777,-27.344,-521.973,61.523,2.441
1642303686.092,-467.773,-0.977,-711.426,62.500,-1.953
1642303686.095,599.121,47.363,-378.418,26.367,4.883
1642303686.099,680.176,-9.766,-476.074,23.438,-14.648
1642303686.103,-354.980,-13.184,-741.211,48.828,-1.953
1642303686.107,-632.324,52.246,-488.770,69.336,46.875
1642303686.111,335.938,47.363,-306.152,43.945,31.250
1642303686.098,832.031,33.203,-271.484,27.344,10.254
1642303686.102,-51.270,45.898,-283.203,64.453,20.508
1642303686.106,-712.891,40.527,-269.531,79.590,40.527
1642303686.110,34.668,30.762,-318.359,45.410,29.785
1642303686.114,857.422,40.527,-196.777,42.969,29.785
1642303686.118,256.836,13.184,-295.898,56.641,10.254
1642303686.122,-680.176,12.207,-519.531,86.914,19.043
1642303686.125,-287.598,29.785,-530.762,62.500,20.508
1642303686.129,728.516,60.059,-362.793,19.531,7.812
1642303686.133,533.203,71.289,-96.680,37.598,30.762
1642303686.137,-533.691,30.762,-150.879,63.477,29.785
1642303686.141,-538.086,-6.348,-474.121,47.363,20.508
1642303686.144,515.625,5.859,-656.250,-0.977,16.602
1642303686.148,719.238,62.988,-340.820,6.836,37.109
1642303686.152,-302.734,45.898,-107.422,45.898,84.473
1642303686.156,-697.266,3.418,-416.016,48.828,41.504
1642303686.160,232.910,28.809,-494.629,19.531,-12.207
1642303686.164,816.895,42.969,-283.691,-13.184,6.836
1642303686.168,-13.184,33.691,-249.023,1.953,40.039
1642303686.171,-774.902,-24.414,-603.027,22.461,12.207
1642303686.175,-110.840,6.836,-767.090,-26.855,-11.230
1642303686.179,776.855,92.285,-123.535,-35.156,34.668
1642303686.183,232.422,31.738,-12.695,-33.691,18.066
1642303686.187,-768.555,-21.973,-309.570,-38.086,11.230
1642303686.188,-456.055,7.812,-284.668,-49.805,23.438
1642303686.192,560.547,21.484,-13.184,-90.820,20.508
1642303686.196,411.133,-27.344,26.367,-128.418,21.973
1642303686.200,-669.434,-69.824,-256.348,-137.207,18.555
1642303686.204,-736.816,-54.199,-427.734,-135.742,16.113
1642303686.208,282.227,-4.883,-292.969,-170.898,12.695
1642303686.212,543.945,-10.742,-102.539,-182.129,50.293
1642303686.215,-440.430,-104.980,-529.785,-152.344,32.227
1642303686.219,-898.438,-67.871,-673.828,-152.832,2.930
1642303686.223,-10.742,1.953,-106.934,-192.383,34.180
1642303686.227,655.273,-28.320,111.816,-174.805,43.945
1642303686.231,-75.684,-58.105,29.297,-134.277,41.016
1642303686.234,-888.672,-68.848,-122.070,-117.188,26.367
1642303686.238,-307.617,-52.246,-114.746,-140.625,34.180
1642303686.242,639.160,-39.062,-60.547,-145.996,24.414
1642303686.246,236.328,-29.785,-86.426,-107.910,24.414
1642303686.250,-763.184,-39.062,-190.430,-73.730,34.180
1642303686.254,-553.711,-44.434,-391.602,-82.031,17.578
1642303686.258,494.141,-46.875,-580.078,-99.121,19.043
1642303686.261,512.207,-14.160,-671.875,-77.148,25.391
1642303686.265,-515.137,43.945,-370.117,-16.602,50.781
1642303686.269,-689.453,4.395,-292.969,19.531,26.367
1642303686.273,335.449,7.812,-354.004,-4.395,-12.207
1642303686.277,746.094,44.922,-170.410,-1.465,-0.977
1642303686.278,-185.547,40.039,-86.426,31.250,48.340
1642303686.282,-735.840,1.465,-270.508,63.965,64.453
1642303686.286,104.004,3.906,-475.098,54.688,8.301
1642303686.290,848.633,57.129,-290.527,42.480,7.324
1642303686.294,187.500,57.129,-125.977,76.172,54.688
1642303686.298,-693.848,-12.207,-470.215,116.211,56.152
1642303686.302,-192.871,-6.348,-892.578,93.750,16.113
1642303686.305,817.383,84.473,-579.102,86.426,13.672
1642303686.309,527.344,71.777,-237.793,111.328,20.508
1642303686.313,-507.324,24.414,-473.633,127.930,23.926
1642303686.317,-411.621,49.316,-611.328,131.348,49.805
1642303686.321,651.855,104.980,-312.988,108.398,60.059
1642303686.339,767.090,80.078,-130.371,110.352,42.480
1642303686.343,-276.367,7.812,-495.605,130.371,25.391
1642303686.347,-571.289,23.438,-761.230,129.883,20.508
1642303686.351,406.738,87.402,-402.344,110.840,53.711
1642303686.355,901.855,64.453,-180.176,104.980,49.316
1642303686.359,21.973,9.766,-507.324,130.859,8.789
1642303686.363,-642.090,12.695,-847.656,157.227,8.789
1642303686.366,94.727,63.477,-675.293,120.117,9.766
1642303686.370,902.832,66.406,-364.746,109.863,-1.465
1642303686.374,306.641,16.113,-615.234,138.184,4.395
1642303686.378,-619.141,39.062,-819.824,151.855,20.508
1642303686.382,-198.242,79.590,-516.113,137.207,20.020
1642303686.384,816.406,66.895,-337.891,108.398,46.875
1642303686.388,583.008,42.969,-376.465,112.305,49.316
1642303686.392,-467.773,37.598,-483.398,137.695,17.090
1642303686.396,-459.473,53.711,-448.730,126.465,30.273
1642303686.400,572.266,55.664,-345.703,95.703,49.316
1642303686.404,762.207,31.738,-359.375,97.168,70.312
1642303686.408,-250.000,19.043,-591.797,118.164,25.879
1642303686.411,-619.629,55.176,-585.938,120.117,15.625
1642303686.415,292.969,44.434,-477.051,86.426,25.879
1642303686.419,861.328,22.461,-656.250,59.570,0.488
1642303686.423,58.105,57.617,-588.379,66.406,20.508
1642303686.427,-697.754,46.875,-459.961,86.914,41.992
1642303686.428,-34.668,48.828,-467.285,68.359,16.602
1642303686.432,867.188,74.707,-306.641,59.082,26.855
1642303686.436,355.469,65.430,-127.441,78.613,54.688
1642303686.440,-639.160,12.695,-338.867,100.586,47.363
1642303686.444,-340.820,4.395,-666.016,67.871,29.297
1642303686.448,716.309,53.711,-543.945,42.969,49.316
1642303686.452,614.258,57.129,-348.145,63.477,62.012
1642303686.455,-476.562,32.227,-365.234,92.285,50.293
1642303686.459,-571.777,-14.648,-681.152,83.984,31.738
1642303686.463,474.121,34.180,-695.312,45.410,25.879
1642303686.467,773.926,93.262,-151.367,49.316,42.969
1642303686.471,-209.473,33.203,-120.117,75.684,58.105
1642303686.473,-699.219,9.277,-418.457,72.266,33.691
1642303686.477,177.246,54.688,-321.289,34.668,39.551
1642303686.481,845.215,62.012,-76.660,30.273,39.062
1642303686.485,88.379,23.926,-184.570,56.641,45.410
1642303686.489,-719.238,17.090,-330.566,75.684,102.051
1642303686.493,-141.113,30.273,-380.371,50.293,83.984
1642303686.497,789.062,42.969,-353.027,29.785,44.922
1642303686.500,376.465,10.742,-430.176,40.039,34.180
1642303686.504,-656.738,-39.551,-862.305,57.129,17.090
1642303686.508,-427.246,35.156,-827.637,47.852,2.441
1642303686.512,645.996,92.285,-327.637,16.113,4.395
1642303686.516,634.766,68.359,-169.922,19.043,34.668
1642303686.518,-407.715,47.363,-235.840,62.988,62.500
1642303686.522,-608.887,43.945,-281.250,76.172,41.504
1642303686.526,383.789,55.664,-259.277,34.668,3.418
1642303686.530,786.133,64.941,-165.527,21.973,40.039
1642303686.534,-155.273,28.809,-246.582,43.945,41.016
1642303686.538,-729.004,-2.441,-577.637,62.012,9.766
1642303686.542,95.703,55.176,-468.262,39.551,51.270
1642303686.545,821.289,27.832,-440.430,21.484,33.691
1642303686.549,144.531,4.883,-610.352,34.668,18.066
1642303686.553,-710.449,37.598,-432.129,62.012,66.406
1642303686.557,-227.539,22.461,-333.984,40.039,71.289
1642303686.561,751.953,27.344,-318.359,16.113,31.738
1642303686.563,452.148,50.293,-250.488,36.133,32.227
1642303686.567,-598.145,24.414,-251.465,56.641,27.832
1642303686.571,-489.746,-2.441,-493.652,41.504,-13.184
1642303686.575,585.938,42.480,-399.414,28.809,9.766
1642303686.579,689.453,56.152,-132.324,36.621,37.109
1642303686.583,-359.863,18.066,-312.012,52.734,37.598
1642303686.587,-648.438,-6.348,-604.980,43.945,45.898
1642303686.590,311.035,2.930,-771.973,-7.812,4.395
1642303686.594,819.824,76.172,-446.289,5.859,9.277
1642303686.598,-55.176,55.664,-134.766,46.875,42.969
1642303686.602,-731.934,-4.395,-406.250,61.035,11.719
1642303686.606,12.207,24.414,-442.383,29.297,4.395
1642303686.610,827.637,47.363,-188.965,5.371,43.945
1642303686.614,229.492,16.113,-221.680,27.344,33.691
1642303686.618,-716.797,-9.277,-517.578,50.293,21.973
1642303686.622,-308.105,27.832,-542.969,33.203,39.551
1642303686.626,708.008,67.383,-192.871,13.184,60.547
1642303686.630,492.676,26.855,-192.871,18.066,52.246
1642303686.634,-566.406,-43.457,-671.387,53.711,7.324
1642303686.637,-568.848,-12.207,-848.145,47.363,-1.465
1642303686.641,500.977,71.289,-312.012,30.762,34.180
1642303686.645,711.426,45.410,-32.227,34.180,47.852
1642303686.649,-314.941,2.930,-232.910,33.203,38.574
1642303686.653,-708.008,25.879,-328.613,57.129,51.758
1642303686.654,236.328,65.918,-117.188,36.133,73.730
1642303686.658,823.242,37.598,-50.293,28.809,46.387
1642303686.662,-9.766,0.488,-290.039,46.875,10.254
1642303686.666,-742.676,21.973,-461.426,49.316,38.086
1642303686.670,-74.219,45.898,-349.609,26.367,46.387
1642303686.674,801.758,18.555,-299.316,11.719,13.184
1642303686.678,289.551,-37.598,-778.809,38.086,-13.672
