timestamps,TP9,AF7,AF8,TP10,Right AUX
1642302653.930,96.680,-99.121,25.879,-36.133,94.238
1642302653.934,66.406,-296.387,28.320,-30.273,100.098
1642302653.938,-80.078,-409.668,35.645,-17.578,81.055
1642302653.942,-75.195,-264.160,45.410,-6.348,62.012
1642302653.946,71.289,-59.570,42.480,-16.113,107.422
1642302653.950,83.008,-301.270,33.203,-26.855,107.422
1642302653.954,-47.363,-521.973,33.691,-12.695,72.754
1642302653.957,-78.613,-247.070,35.645,5.859,80.078
1642302653.961,44.922,-160.645,37.109,0.488,66.895
1642302653.965,118.164,-350.586,56.641,5.859,51.270
1642302653.969,6.348,-426.758,63.477,0.488,51.758
1642302653.973,-116.211,-318.359,40.527,-9.766,55.176
1642302653.975,-32.227,-316.895,34.180,-18.555,75.684
1642302653.979,80.078,-423.828,44.434,-37.598,75.195
1642302653.983,-9.277,-503.418,55.664,-43.457,60.547
1642302653.987,-142.578,-674.316,73.242,-48.828,42.480
1642302653.991,-116.699,-915.039,64.941,-102.539,35.645
1642302653.995,-1.953,-959.961,72.266,-147.461,20.996
1642302653.999,-25.391,-966.797,113.281,-164.062,4.883
1642302654.002,-196.777,-966.309,133.301,-190.430,-0.488
1642302654.006,-248.535,-970.215,148.438,-226.562,-3.418
1642302654.010,-117.188,-971.680,196.777,-249.512,-23.438
1642302654.014,-66.406,-970.703,266.113,-255.371,-32.715
1642302654.018,-203.613,-971.191,336.426,-257.324,9.277
1642302654.034,-291.504,-971.191,403.809,-259.766,10.254
1642302654.038,-177.246,-971.191,454.102,-279.785,-3.906
1642302654.042,-80.566,-971.191,508.789,-268.066,-1.465
1642302654.046,-181.641,-971.191,562.988,-249.512,3.418
1642302654.050,-286.133,-971.191,600.586,-253.906,-18.066
1642302654.054,-205.566,-970.215,621.582,-253.418,-21.484
1642302654.058,-57.617,-976.562,629.883,-235.352,-13.184
1642302654.061,-83.984,-947.754,629.883,-206.055,-14.160
1642302654.065,-219.727,-955.078,607.910,-183.594,-42.969
1642302654.069,-176.758,-963.867,575.195,-174.316,-69.824
1642302654.073,-19.043,-604.004,540.039,-156.738,-1.953
1642302654.077,0.977,-312.988,501.465,-130.859,23.438
1642302654.065,-123.535,-376.465,463.867,-94.238,10.742
1642302654.069,-149.414,-371.582,424.805,-71.289,-7.812
1642302654.073,0.000,-172.852,382.812,-53.711,16.113
1642302654.077,74.219,-66.895,336.426,-21.484,39.062
1642302654.081,-33.203,-182.617,292.969,6.348,5.371
1642302654.085,-97.656,-199.707,250.000,34.668,24.414
1642302654.089,10.742,-103.027,204.590,50.781,52.734
1642302654.092,119.629,16.602,164.551,88.379,74.219
1642302654.096,51.270,67.383,120.117,99.609,78.613
1642302654.100,-60.547,48.828,73.730,103.027,58.105
1642302654.104,15.625,154.785,34.180,126.465,58.105
1642302654.108,157.227,210.449,0.488,135.254,46.387
1642302654.109,120.605,-161.621,-26.855,145.020,41.016
1642302654.113,-10.254,-102.051,-47.852,152.832,65.918
1642302654.117,4.395,279.297,-72.754,148.438,74.707
1642302654.121,157.227,300.293,-95.215,152.344,89.844
1642302654.125,173.828,312.500,-110.352,160.156,95.703
1642302654.129,33.691,228.516,-122.559,165.527,78.125
1642302654.133,-2.930,160.645,-134.277,165.527,80.078
1642302654.136,123.535,46.875,-149.414,150.391,75.195
1642302654.140,201.660,-55.176,-160.156,150.879,55.176
1642302654.144,98.633,249.512,-164.062,163.086,77.148
1642302654.148,18.066,334.473,-171.387,177.246,75.195
1642302654.152,121.094,293.945,-185.059,145.020,82.031
1642302654.156,222.656,297.852,-190.430,121.094,107.910
1642302654.160,142.090,297.852,-188.965,132.812,82.031
1642302654.164,26.855,266.602,-182.617,145.020,48.828
1642302654.168,88.867,94.238,-175.293,132.324,37.109
1642302654.172,219.727,178.711,-177.734,110.352,56.152
1642302654.176,195.801,187.988,-182.617,108.887,60.059
1642302654.180,51.270,22.461,-183.105,116.211,36.621
1642302654.183,38.574,-200.684,-181.641,104.492,17.578
1642302654.187,179.199,-115.234,-176.758,88.867,10.254
1642302654.191,214.355,274.414,-176.270,88.379,39.551
1642302654.195,83.496,100.098,-169.922,89.355,15.137
1642302654.199,18.066,-41.504,-159.668,95.215,-3.418
1642302654.199,134.277,157.227,-162.598,86.426,28.809
1642302654.203,222.656,316.406,-165.039,98.633,69.824
1642302654.207,105.469,153.809,-155.762,95.703,55.664
1642302654.211,-9.277,-78.125,-148.438,92.773,22.949
1642302654.215,70.801,42.480,-144.531,100.098,33.691
1642302654.219,192.871,88.867,-140.625,104.004,53.223
1642302654.223,129.883,-176.270,-139.160,106.445,23.926
1642302654.226,-13.184,-465.332,-128.418,118.164,0.000
1642302654.230,26.367,-189.453,-116.699,130.859,15.137
1642302654.234,165.039,149.902,-115.234,109.863,27.344
1642302654.238,137.695,95.215,-109.375,98.633,24.902
1642302654.242,-7.812,3.906,-96.680,112.793,-3.418
1642302654.245,-27.344,67.871,-92.285,105.957,10.254
1642302654.249,106.934,119.141,-96.191,97.656,20.508
1642302654.253,158.691,46.387,-94.727,113.770,3.418
1642302654.257,38.574,40.039,-87.402,112.793,1.465
1642302654.261,-20.020,46.875,-78.613,112.305,-9.277
1642302654.265,84.473,-104.004,-76.172,91.797,-27.832
1642302654.269,165.039,-231.934,-75.195,80.078,-12.695
1642302654.272,72.754,-214.844,-71.777,88.867,-12.695
1642302654.276,-43.945,-53.223,-67.871,84.473,-26.367
1642302654.280,28.320,-13.184,-63.477,71.777,-20.996
1642302654.284,164.551,-237.793,-58.594,53.711,-26.367
1642302654.288,109.863,-85.449,-59.082,43.457,-9.766
1642302654.289,-37.109,81.055,-54.688,54.199,-12.207
1642302654.293,-19.043,-89.355,-47.363,42.969,-38.086
1642302654.297,125.977,-64.453,-45.410,36.621,-26.367
1642302654.301,137.695,77.148,-38.574,37.598,-10.742
1642302654.305,-3.906,69.824,-33.203,24.902,-19.531
1642302654.309,-44.434,-324.707,-31.738,15.625,-79.102
1642302654.313,84.473,-440.918,-30.762,5.371,-89.355
1642302654.316,156.250,-54.199,-25.879,10.742,-56.152
1642302654.320,42.480,22.461,-23.438,10.742,-61.523
1642302654.324,-50.293,-370.605,-30.273,6.836,-91.797
1642302654.328,53.223,-432.129,-29.785,3.906,-61.523
1642302654.332,170.410,-7.812,-27.344,0.000,-20.996
1642302654.349,88.867,-22.461,-33.203,7.324,-43.457
1642302654.353,-36.133,-219.727,-26.855,13.184,-59.570
1642302654.357,21.973,-159.180,-14.648,-0.488,-14.648
1642302654.361,151.367,-12.695,-18.066,-10.254,13.184
1642302654.365,132.812,-46.875,-23.438,-5.859,13.672
1642302654.369,-6.348,-350.098,-18.066,1.953,-8.789
1642302654.373,-23.438,-359.863,-7.324,-3.418,9.277
1642302654.376,116.699,-133.789,-1.465,-7.324,26.367
1642302654.380,144.531,-144.043,-0.977,22.949,37.109
1642302654.384,7.324,-409.668,-3.418,35.156,52.734
1642302654.388,-49.316,-352.051,-0.488,27.832,58.594
1642302654.392,64.453,-77.637,-4.883,18.066,69.336
1642302654.394,139.648,-208.984,-10.742,24.902,79.590
1642302654.398,39.062,-303.711,-5.859,43.945,83.984
1642302654.402,-59.570,-177.734,-2.441,47.852,51.270
1642302654.406,18.066,-79.102,-0.488,54.688,55.176
1642302654.410,131.348,-91.797,2.441,62.500,65.918
1642302654.414,61.523,-279.785,4.883,53.223,18.555
1642302654.418,-79.102,-341.797,6.836,64.453,0.488
1642302654.421,-38.574,-131.836,9.766,69.824,7.812
1642302654.425,108.398,-211.914,8.301,70.312,-6.348
1642302654.429,86.426,-490.723,8.789,65.918,-66.895
1642302654.433,-67.871,-203.613,11.719,73.730,-69.336
1642302654.437,-81.543,-36.133,7.324,76.660,-46.875
1642302654.440,52.246,-104.492,6.348,61.035,-65.918
1642302654.444,86.426,-36.621,10.742,70.801,-71.289
1642302654.448,-38.086,-96.680,13.672,65.430,-92.773
1642302654.452,-95.215,-284.180,14.648,52.246,-121.582
1642302654.456,27.344,-327.148,17.090,42.969,-116.699
1642302654.460,112.793,-269.531,16.113,52.246,-78.125
1642302654.464,18.066,-246.582,12.695,54.199,-60.059
1642302654.467,-81.543,-270.020,14.648,31.250,-48.828
1642302654.471,-13.184,-511.230,16.602,16.602,-59.570
1642302654.475,115.234,-367.676,14.648,25.879,-27.344
1642302654.479,66.406,20.020,11.230,36.133,27.344
1642302654.483,-70.801,-126.465,11.719,42.480,36.133
1642302654.484,-38.086,-232.422,15.137,30.762,41.016
1642302654.488,103.516,-62.500,18.066,30.273,71.777
1642302654.492,104.980,18.555,20.996,46.875,100.586
1642302654.496,-36.133,-151.367,20.996,44.922,92.285
1642302654.500,-65.918,-209.473,18.555,41.504,102.051
1642302654.504,71.777,-259.277,20.020,23.926,88.379
1642302654.508,128.906,-284.668,21.973,25.391,89.355
1642302654.511,1.953,-425.781,22.949,31.738,50.293
1642302654.515,-80.566,-730.469,26.855,25.879,0.488
1642302654.519,25.879,-392.090,28.320,20.020,25.391
1642302654.523,129.883,-29.785,25.391,19.531,42.480
1642302654.527,46.387,-120.117,24.414,40.039,23.926
1642302654.529,-69.336,-218.750,26.367,38.086,-22.461
1642302654.533,-4.395,-151.855,26.367,1.465,-41.992
1642302654.537,133.301,-97.168,23.926,-3.418,-38.574
1642302654.541,102.051,-157.715,22.949,0.977,-37.598
1642302654.545,-42.969,-133.789,22.461,4.395,-20.508
1642302654.549,-42.480,-299.316,26.367,4.883,-71.777
1642302654.553,93.262,-355.957,28.809,2.930,-75.684
1642302654.556,114.258,-441.406,28.320,9.277,-48.828
1642302654.560,-19.531,-510.254,30.762,10.254,-58.594
1642302654.564,-68.359,-252.441,30.762,14.160,-51.758
1642302654.568,57.617,-176.758,28.809,15.137,-38.574
1642302654.572,130.371,-227.051,30.762,19.531,-20.508
1642302654.575,18.555,-104.492,33.691,22.949,-5.371
1642302654.579,-69.824,-77.637,27.344,19.531,-4.395
1642302654.583,23.926,-223.145,24.902,10.742,-20.020
1642302654.587,138.184,-187.500,27.832,11.719,0.488
1642302654.591,70.312,-38.086,22.461,14.160,42.480
1642302654.595,-68.848,-185.059,23.926,26.367,41.504
1642302654.599,-33.203,-491.211,31.250,18.555,9.277
1642302654.602,105.469,-525.391,30.762,-1.465,15.625
1642302654.606,95.215,-156.738,25.391,4.395,48.828
1642302654.610,-53.711,-55.176,22.949,19.043,47.363
1642302654.614,-63.965,-171.875,28.320,11.230,39.062
1642302654.618,79.102,-196.777,34.180,-9.277,40.527
1642302654.620,108.398,-126.953,30.273,0.488,49.805
1642302654.624,-15.625,-93.262,30.762,11.719,29.785
1642302654.628,-74.707,-258.301,38.086,9.277,27.832
1642302654.632,42.480,-229.492,37.109,-0.488,29.297
1642302654.636,130.371,-27.832,33.203,0.977,33.691
1642302654.640,24.414,-179.199,27.832,11.230,14.648
1642302654.644,-86.914,-611.816,28.809,16.602,-29.297
1642302654.647,-3.906,-481.445,29.297,8.301,-11.230
1642302654.651,122.559,-7.812,29.297,12.207,23.438
1642302654.655,56.152,-104.492,27.832,17.578,-1.465
1642302654.659,-77.148,-242.188,24.902,25.879,-9.766
1642302654.663,-32.227,-140.137,29.785,27.832,0.000
1642302654.679,104.004,-73.730,32.227,40.039,-7.812
1642302654.683,95.215,-130.859,31.250,56.641,0.977
1642302654.687,-44.434,-321.777,27.344,35.645,-7.812
1642302654.691,-62.988,-403.320,26.855,20.508,-41.992
1642302654.695,75.195,-153.320,27.832,22.949,0.977
1642302654.699,118.164,-247.070,25.391,25.879,34.668
1642302654.703,-9.277,-724.609,25.879,25.391,-3.906
1642302654.706,-84.961,-490.723,29.297,21.973,16.602
1642302654.710,31.738,-84.961,29.785,17.090,58.594
1642302654.714,136.719,-137.207,32.715,22.949,51.758
1642302654.718,37.598,-161.133,36.133,24.414,55.664
1642302654.722,-75.195,-123.047,36.621,30.273,67.383
1642302654.724,-1.953,-165.527,34.180,19.043,58.105
1642302654.728,126.953,-146.973,27.832,18.555,92.773
1642302654.732,83.496,-105.469,26.855,25.879,114.258
1642302654.736,-63.965,-95.215,28.320,31.738,118.164
1642302654.740,-51.758,-125.977,29.297,39.551,125.488
1642302654.744,90.820,-280.273,26.855,25.391,103.027
1642302654.748,105.469,-354.004,26.855,17.090,91.309
1642302654.751,-28.809,-351.562,28.320,23.926,88.867
1642302654.755,-65.918,-315.918,23.926,26.367,93.262
1642302654.759,65.430,-568.359,25.391,27.832,66.895
1642302654.763,137.695,-545.898,28.809,30.762,64.941
1642302654.767,23.438,-59.570,24.414,31.738,109.375
1642302654.769,-70.801,-161.621,23.926,29.785,81.055
1642302654.773,18.066,-257.324,28.809,21.973,54.199
1642302654.777,125.000,-15.625,27.344,30.762,98.145
1642302654.781,53.223,38.086,27.832,32.227,108.887
1642302654.785,-71.289,-163.574,29.785,33.203,76.172
1642302654.789,-9.766,-264.648,29.297,32.715,83.496
1642302654.793,135.742,-224.609,32.715,29.297,79.590
1642302654.796,99.121,-153.809,34.180,27.344,47.852
1642302654.800,-50.293,-329.590,30.762,26.855,23.926
1642302654.804,-53.223,-701.660,27.344,16.602,-13.184
1642302654.808,88.867,-361.816,25.391,6.836,-4.395
1642302654.812,123.047,-53.223,28.809,22.949,8.301
1642302654.815,-3.906,-147.949,30.273,39.062,14.648
1642302654.819,-57.129,-140.625,28.320,25.391,29.297
1642302654.823,56.152,-37.109,32.227,15.625,28.809
1642302654.827,134.277,-3.906,33.203,12.695,33.203
1642302654.831,30.762,-172.852,29.785,7.812,14.648
1642302654.835,-69.336,-301.758,26.855,11.719,16.602
1642302654.839,19.531,-292.480,23.438,-1.465,27.344
1642302654.842,139.648,-223.633,20.508,3.418,20.020
1642302654.846,72.754,-490.723,24.414,10.742,-15.137
1642302654.850,-62.012,-463.867,32.227,18.066,-0.488
1642302654.854,-15.137,-106.934,32.227,20.996,15.625
1642302654.858,122.070,-215.332,33.691,8.301,14.648
1642302654.859,98.633,-338.379,34.668,10.254,17.090
1642302654.863,-43.945,-126.465,31.738,24.414,48.340
1642302654.867,-61.523,-48.340,31.738,32.227,61.035
1642302654.871,74.219,-130.371,30.273,35.645,58.105
1642302654.875,113.281,-132.324,28.809,32.715,63.965
1642302654.879,-20.996,-263.184,31.250,37.598,29.785
1642302654.883,-89.355,-345.215,38.574,49.805,32.715
1642302654.886,20.996,-422.363,37.109,47.852,49.316
1642302654.890,110.352,-452.637,31.250,50.293,66.895
1642302654.894,17.090,-179.688,25.391,54.199,67.871
1642302654.898,-90.820,-124.023,22.461,71.777,48.828
1642302654.902,-16.602,-167.480,29.785,81.543,68.359
1642302654.905,112.305,-94.238,33.203,79.590,82.520
1642302654.909,61.035,-21.484,32.715,63.477,75.195
1642302654.913,-77.637,-188.965,33.691,58.594,57.617
1642302654.917,-58.594,-337.891,33.691,60.059,68.848
1642302654.921,80.566,-193.359,31.738,50.781,57.617
1642302654.925,91.309,-227.051,34.180,61.523,28.320
1642302654.929,-49.316,-300.781,35.156,65.430,29.785
1642302654.932,-73.242,-482.910,34.180,42.969,27.832
1642302654.936,70.801,-405.273,37.109,33.203,23.438
1642302654.940,123.535,-7.812,38.086,38.086,30.273
1642302654.944,-12.207,-107.910,36.621,42.969,15.625
1642302654.948,-98.145,-231.445,34.668,40.527,0.977
1642302654.950,11.719,-105.957,32.715,24.902,0.000
1642302654.954,114.746,-20.020,32.227,38.086,-6.348
1642302654.958,29.297,-134.766,36.133,55.176,-12.207
1642302654.962,-89.355,-194.824,38.574,48.828,-3.906
1642302654.966,-24.414,-101.562,40.039,24.414,-1.465
1642302654.970,108.398,-138.184,38.086,21.973,-12.207
1642302654.974,76.172,-345.703,34.668,36.133,-19.043
1642302654.977,-63.477,-670.898,32.715,33.691,-41.992
1642302654.981,-58.594,-441.895,33.691,27.344,-56.152
1642302654.985,82.520,-37.109,33.203,20.020,-20.996
1642302654.989,107.422,-94.238,31.250,26.855,-26.855
1642302654.993,-25.879,-200.684,31.738,44.922,-58.105
1642302654.995,-79.102,-128.418,35.645,26.855,-36.621
1642302654.999,41.016,-83.008,37.598,2.441,-20.508
1642302655.003,114.258,-110.840,34.668,-3.906,-8.789
1642302655.007,4.883,-112.793,31.738,-6.836,-3.906
1642302655.011,-85.449,-141.113,33.691,3.906,-20.020
1642302655.015,12.695,-310.059,32.715,-4.883,-51.270
1642302655.019,130.859,-534.668,28.809,-3.906,-29.297
1642302655.022,60.547,-422.363,33.203,-7.812,4.395
1642302655.026,-65.430,-229.004,37.598,-9.277,-10.742
1642302655.030,-12.207,-302.734,33.203,-3.418,-27.344
1642302655.034,127.930,-332.031,30.273,-11.230,-14.648
1642302655.038,102.051,-129.883,28.809,-1.953,21.973
1642302655.054,-33.691,-79.102,29.297,8.301,5.371
1642302655.058,-39.551,-251.465,35.156,-3.418,-13.184
1642302655.062,89.355,-199.219,32.715,-8.301,20.020
1642302655.066,114.746,-34.180,32.715,7.812,40.039
1642302655.070,-27.344,-13.184,36.621,12.207,41.504
1642302655.074,-88.867,-376.953,30.762,-10.742,9.277
1642302655.078,35.156,-534.668,28.320,-24.902,12.695
1642302655.081,124.023,-109.863,27.344,-4.883,49.805
1642302655.085,18.066,-39.551,24.414,1.465,25.391
1642302655.089,-92.285,-253.906,30.762,4.395,1.953
1642302655.093,-8.301,-227.539,32.715,-4.395,25.879
1642302655.097,117.188,-115.723,28.320,8.789,52.246
1642302655.100,62.012,-107.422,33.203,28.809,40.039
1642302655.104,-76.660,-291.504,40.527,18.555,19.043
1642302655.108,-53.223,-295.898,37.598,11.719,38.574
1642302655.112,93.262,-74.219,28.320,13.672,54.688
1642302655.116,85.449,-65.918,26.855,32.227,55.664
1642302655.120,-64.453,-265.137,30.273,51.270,42.480
1642302655.124,-75.684,-410.156,27.832,51.758,34.180
1642302655.127,73.730,-257.324,26.855,53.711,42.969
1642302655.131,116.699,-63.965,38.086,68.848,83.008
1642302655.135,-20.508,-418.457,39.551,78.613,64.941
1642302655.139,-86.914,-485.840,28.320,89.355,25.879
1642302655.143,31.250,-87.402,25.879,88.379,62.988
1642302655.159,119.629,-34.668,28.809,99.121,103.516
1642302655.163,26.855,-107.910,31.738,111.328,99.121
1642302655.167,-86.914,-217.285,31.250,107.422,64.453
1642302655.171,-12.695,-146.484,27.344,83.008,57.129
1642302655.175,121.582,-184.570,27.832,73.242,50.293
1642302655.179,77.148,-415.527,33.691,95.703,25.391
1642302655.183,-53.223,-319.824,33.203,81.543,61.035
1642302655.186,-32.227,-144.043,29.297,41.992,49.316
1642302655.190,98.145,-268.555,27.344,41.016,19.043
1642302655.194,104.980,-407.227,27.344,45.898,42.480
1642302655.198,-29.297,-132.324,30.762,47.852,41.504
1642302655.202,-74.707,-121.094,36.133,36.133,4.395
1642302655.190,54.199,-176.758,39.062,26.855,11.230
1642302655.194,125.000,-56.641,38.574,38.574,41.016
1642302655.198,12.207,-5.859,31.738,35.645,40.527
1642302655.202,-71.777,-57.129,28.320,36.133,42.969
1642302655.206,27.344,-187.012,31.250,19.043,19.043
1642302655.210,127.930,-287.109,27.832,19.043,4.883
1642302655.214,44.922,-255.859,24.902,29.297,18.555
1642302655.217,-71.289,-270.996,28.809,23.438,-9.277
1642302655.221,-12.207,-385.254,32.227,26.367,-24.902
1642302655.225,116.211,-196.289,32.715,22.949,16.602
1642302655.229,84.961,32.227,25.879,7.812,43.457
1642302655.233,-57.129,-133.789,22.461,9.766,20.508
1642302655.235,-47.363,-563.477,27.344,7.812,-28.320
1642302655.239,91.797,-345.703,27.344,12.207,4.395
1642302655.243,112.305,-3.906,24.902,18.555,27.832
1642302655.247,-16.113,-175.293,28.809,34.180,1.953
1642302655.251,-79.590,-277.344,35.156,34.668,14.160
1642302655.255,49.316,-230.469,37.598,14.648,39.551
1642302655.259,133.301,-148.438,30.762,17.578,54.199
1642302655.262,20.020,-360.352,25.879,8.301,20.020
1642302655.266,-81.055,-742.188,28.809,0.488,-30.273
1642302655.270,11.230,-397.949,27.832,-7.324,6.836
1642302655.274,131.836,-1.465,27.344,-3.418,47.363
1642302655.278,66.895,-115.234,31.250,4.395,31.738
1642302655.280,-62.988,-162.109,36.133,-10.742,38.574
1642302655.284,-35.645,-87.402,33.203,-23.926,41.016
1642302655.288,97.168,-47.363,26.367,-19.043,43.945
1642302655.292,85.449,-107.422,27.832,-13.184,39.062
1642302655.296,-61.035,-146.973,33.203,-10.742,25.879
1642302655.300,-77.637,-270.020,34.668,-13.672,13.184
1642302655.304,62.988,-307.129,34.668,-9.277,7.812
1642302655.307,109.863,-460.449,33.691,0.488,-5.371
1642302655.311,-15.625,-431.152,37.598,18.555,-7.812
1642302655.315,-85.449,-82.520,38.086,40.527,17.578
1642302655.319,25.879,-165.039,30.762,15.137,9.277
1642302655.323,125.977,-195.312,29.785,23.438,34.180
1642302655.324,29.297,-69.336,30.762,42.969,47.363
1642302655.328,-78.613,-129.883,32.715,27.832,14.648
1642302655.332,10.742,-229.980,34.668,24.902,45.410
1642302655.336,130.371,-235.352,34.668,23.438,68.359
1642302655.340,68.359,-110.840,29.297,27.832,82.031
1642302655.344,-64.941,-189.453,27.344,41.992,109.375
1642302655.348,-38.574,-480.469,28.320,32.715,84.473
1642302655.351,105.469,-534.180,25.391,30.273,84.961
1642302655.355,102.539,-158.203,26.367,45.898,125.488
1642302655.359,-43.457,-85.449,24.902,50.293,100.098
1642302655.363,-70.801,-251.953,20.508,44.434,67.871
1642302655.367,59.570,-227.051,20.020,35.156,61.523
1642302655.370,121.094,-47.363,26.367,44.922,82.520
1642302655.374,0.000,-103.027,29.785,53.711,80.566
1642302655.378,-83.496,-396.973,32.227,49.316,30.273
1642302655.382,29.297,-283.691,31.738,42.480,21.484
1642302655.386,132.324,-27.344,29.785,50.781,34.668
1642302655.390,42.969,-157.227,30.273,49.316,14.648
1642302655.394,-72.754,-587.402,31.250,31.738,-34.180
1642302655.397,-6.836,-535.156,32.715,7.324,-54.199
1642302655.401,132.324,-32.715,29.785,1.465,-9.277
1642302655.405,97.656,-6.836,36.621,6.836,18.555
1642302655.409,-47.852,-159.180,42.969,7.812,5.371
1642302655.413,-41.016,-103.027,33.203,-7.812,-3.418
1642302655.415,93.262,-34.668,25.879,-15.137,-22.461
1642302655.419,105.469,-152.344,28.809,-3.906,-39.062
1642302655.423,-29.297,-275.391,31.738,-0.977,-43.945
1642302655.427,-69.824,-179.688,36.133,-4.395,-22.461
1642302655.431,60.059,-166.504,33.691,-12.207,-10.742
1642302655.435,124.512,-308.594,30.762,0.488,25.879
1642302655.439,3.906,-642.578,31.250,1.465,17.578
1642302655.442,-82.031,-491.699,34.180,3.906,-1.465
1642302655.446,10.742,-111.816,35.645,13.184,26.367
1642302655.450,119.141,-114.746,32.715,12.695,33.691
1642302655.454,47.363,-208.008,29.785,14.648,24.902
1642302655.458,-80.078,-241.699,25.391,20.508,0.000
1642302655.475,-31.738,-154.785,26.855,21.484,19.531
1642302655.479,100.098,-112.305,30.762,32.715,59.082
1642302655.483,79.102,-129.395,31.250,38.086,48.828
1642302655.487,-62.988,-127.441,34.668,34.180,43.457
1642302655.491,-80.078,-150.879,32.227,10.254,51.758
1642302655.495,57.129,-257.324,30.762,0.488,75.195
1642302655.499,103.027,-183.105,32.227,20.020,90.332
1642302655.502,-23.926,-219.238,34.180,19.043,57.617
1642302655.506,-83.984,-330.566,33.203,16.113,61.523
1642302655.510,40.527,-608.887,32.715,7.324,32.227
1642302655.514,131.348,-510.742,35.156,2.441,59.082
1642302655.518,27.832,-105.957,37.109,6.348,87.402
1642302655.520,-83.984,-225.098,39.551,8.789,77.637
1642302655.524,-0.977,-250.977,36.133,2.441,91.309
1642302655.528,120.605,-64.941,34.180,3.906,110.352
1642302655.532,62.012,4.395,37.109,11.719,132.324
1642302655.536,-65.430,-177.734,37.598,13.672,118.164
1642302655.540,-32.715,-336.426,37.598,8.301,115.234
1642302655.544,109.375,-297.363,36.133,11.230,122.559
1642302655.547,109.375,-155.762,33.203,7.324,117.188
1642302655.551,-26.367,-312.012,37.598,8.789,102.539
1642302655.555,-48.340,-508.301,35.645,20.996,94.238
1642302655.559,80.566,-225.586,29.297,5.859,124.023
1642302655.563,126.465,-90.332,33.691,9.277,133.301
1642302655.564,-4.395,-282.227,32.227,21.973,75.684
1642302655.568,-87.891,-354.980,29.297,5.859,42.480
1642302655.572,19.531,-66.406,33.203,-10.742,95.703
1642302655.576,120.117,3.418,36.133,-8.301,104.980
1642302655.580,30.273,-198.242,37.598,1.465,41.016
1642302655.584,-83.008,-296.875,35.645,7.812,48.828
1642302655.588,-17.578,-284.180,39.551,-0.488,64.453
1642302655.591,111.328,-203.125,41.992,6.348,52.734
1642302655.595,72.754,-451.172,34.180,8.301,21.973
1642302655.599,-66.895,-451.172,28.320,4.395,25.391
1642302655.603,-42.480,-104.004,24.414,3.418,50.293
1642302655.607,95.703,-155.762,24.902,2.930,40.527
1642302655.610,88.379,-196.289,28.809,11.719,42.480
1642302655.614,-39.551,-181.152,28.320,20.996,71.289
1642302655.618,-74.707,-150.879,26.367,26.855,82.520
1642302655.622,48.828,-219.727,27.832,25.391,75.195
1642302655.626,111.328,-302.734,33.203,51.270,73.730
1642302655.630,-15.137,-294.922,33.203,45.898,87.402
1642302655.634,-96.680,-266.602,33.691,34.180,109.375
1642302655.637,14.160,-339.844,38.574,40.039,96.191
1642302655.641,118.164,-428.223,39.062,34.180,122.070
1642302655.645,42.480,-145.020,33.203,38.086,143.555
1642302655.649,-76.660,-117.188,28.320,39.062,120.117
1642302655.653,-37.109,-198.730,27.832,37.598,125.977
1642302655.654,94.727,-51.758,30.762,47.852,173.828
1642302655.658,71.777,23.438,31.250,37.598,169.434
1642302655.662,-67.383,-116.211,32.227,34.668,129.883
1642302655.666,-61.523,-196.289,40.039,32.715,135.254
1642302655.670,84.473,-199.707,41.992,20.996,126.953
1642302655.674,107.422,-268.555,33.691,31.738,111.328
1642302655.678,-30.762,-330.078,32.227,35.645,104.004
1642302655.681,-80.078,-604.980,35.156,30.762,74.707
1642302655.685,36.133,-644.043,34.668,14.160,50.781
1642302655.689,116.211,-106.934,34.180,14.160,95.215
1642302655.693,8.789,-88.867,30.762,21.973,86.426
1642302655.697,-85.449,-257.812,33.691,30.273,52.246
1642302655.700,9.766,-103.027,41.992,38.086,68.359
1642302655.704,127.930,-7.812,40.039,16.113,68.359
1642302655.708,68.359,-163.574,37.109,1.953,37.109
1642302655.712,-58.105,-325.684,40.039,29.785,-6.348
1642302655.716,-14.648,-224.609,38.086,13.184,4.883
1642302655.720,114.258,-143.066,36.621,-17.090,53.711
1642302655.724,100.586,-345.215,38.086,-17.578,38.086
1642302655.727,-41.016,-703.125,41.016,-16.602,5.371
1642302655.731,-53.711,-476.074,41.992,-12.695,10.742
1642302655.735,97.168,-70.312,34.668,-12.207,40.039
1642302655.739,138.184,-50.781,36.133,2.441,69.824
1642302655.743,11.230,-128.418,37.109,1.953,48.340
1642302655.744,-54.199,-99.121,31.738,-0.488,43.457
1642302655.748,49.805,-98.633,30.273,-2.441,35.645
1642302655.752,133.789,-94.727,29.785,3.906,57.617
1642302655.756,35.156,-141.602,35.156,17.578,38.574
1642302655.760,-70.801,-184.570,40.039,15.137,14.648
1642302655.764,11.230,-207.520,40.039,7.812,46.875
1642302655.768,140.137,-469.727,41.016,16.113,47.363
1642302655.771,83.008,-416.992,40.527,25.391,48.828
1642302655.775,-62.988,-73.730,38.574,51.758,75.195
1642302655.779,-35.156,-94.238,42.480,30.273,83.984
1642302655.783,106.445,-235.352,36.133,-4.395,65.430
1642302655.787,95.703,-191.895,30.762,22.461,41.992
1642302655.790,-48.828,-99.609,36.133,32.227,37.109
1642302655.794,-76.172,-265.625,30.273,14.160,27.832
1642302655.798,60.059,-339.355,23.926,2.930,39.062
1642302655.802,113.770,-94.727,25.879,11.230,59.082
1642302655.806,-6.348,-21.973,25.879,31.738,50.781
1642302655.810,-83.984,-336.426,26.855,34.180,27.344
1642302655.814,0.488,-530.273,32.227,16.602,21.484
1642302655.817,96.680,-154.297,38.574,24.902,42.480
1642302655.821,11.230,-27.832,33.691,37.109,17.090
1642302655.825,-109.375,-282.715,29.785,37.109,-28.320
1642302655.829,-42.969,-275.879,43.945,25.879,-18.555
1642302655.833,89.355,-47.852,42.969,26.367,13.184
1642302655.850,43.945,-105.957,37.109,18.066,-7.324
1642302655.854,-103.516,-328.125,43.945,9.766,-14.160
1642302655.858,-101.562,-402.344,38.086,16.113,-20.508
1642302655.862,27.832,-302.734,29.785,3.906,-10.254
1642302655.866,53.223,-277.832,52.734,1.465,7.324
1642302655.870,-104.004,-726.562,61.035,-28.809,-28.320
1642302655.874,-183.594,-907.227,40.527,-70.312,-29.785
1642302655.877,-66.406,-497.559,40.527,-77.637,15.625
1642302655.881,-7.812,-488.281,49.316,-86.426,34.668
1642302655.885,-140.625,-675.781,51.758,-98.145,25.391
1642302655.889,-240.723,-710.449,43.945,-114.258,25.391
1642302655.893,-157.715,-690.918,44.922,-146.484,7.812
1642302655.895,-59.082,-678.711,51.270,-145.996,15.625
1642302655.899,-126.953,-758.301,57.617,-148.926,7.324
1642302655.903,-256.836,-687.012,62.988,-153.809,17.578
1642302655.907,-206.543,-591.309,61.035,-165.527,34.668
1642302655.911,-61.523,-734.863,58.594,-168.457,17.578
1642302655.915,-83.496,-890.137,54.688,-145.020,-18.555
1642302655.919,-214.844,-738.770,52.246,-132.324,-17.578
1642302655.922,-205.078,-473.633,55.176,-116.699,-12.695
1642302655.926,-49.316,-492.188,55.176,-106.445,-27.344
1642302655.930,3.906,-511.719,54.688,-101.562,7.324
1642302655.934,-108.887,-211.914,53.223,-78.613,-14.648
1642302655.938,-151.855,-174.316,51.758,-58.594,-78.613
1642302655.940,-18.555,-211.914,49.805,-43.945,-93.750
1642302655.944,75.195,-59.082,44.922,-33.203,-57.129
1642302655.948,-24.902,65.918,38.574,-25.391,-41.504
1642302655.952,-124.023,48.340,35.645,0.000,-44.434
1642302655.956,-24.902,-47.363,33.203,5.859,-64.453
1642302655.960,108.887,-38.574,24.902,18.555,-49.316
1642302655.964,59.570,-58.105,23.438,24.902,-30.762
1642302655.967,-70.801,-143.066,24.414,25.879,-45.410
1642302655.971,-26.367,-396.484,22.461,26.367,-62.988
1642302655.975,134.277,-371.094,22.461,33.691,-58.105
1642302655.979,129.395,145.996,28.320,56.152,5.859
1642302655.983,-20.996,80.566,26.367,43.457,-0.977
1642302655.985,-41.016,-96.191,24.902,40.527,-26.855
1642302655.989,98.633,109.863,25.879,51.270,23.926
1642302655.993,155.273,264.160,16.602,61.523,82.031
1642302655.997,36.621,80.078,17.090,70.801,67.871
1642302656.001,-33.203,-83.008,25.391,72.266,39.551
1642302656.005,77.637,-92.773,22.461,70.801,54.199
1642302656.009,179.199,-70.801,19.531,77.148,72.266
1642302656.012,99.121,-166.992,16.113,87.402,70.312
1642302656.016,-11.719,-403.809,12.695,82.031,64.453
1642302656.020,52.734,-163.086,11.230,51.270,76.660
1642302656.024,181.152,38.086,11.719,53.223,90.332
1642302656.028,139.648,-162.598,11.719,67.871,57.617
1642302656.029,-3.906,-216.797,15.625,74.219,35.156
1642302656.033,12.207,38.574,23.926,80.566,79.102
1642302656.037,152.344,96.191,20.020,72.754,78.613
1642302656.041,165.039,27.832,16.113,78.125,55.176
1642302656.045,29.297,-3.906,16.602,90.332,24.902
1642302656.049,-9.277,-179.688,16.113,94.727,-30.762
1642302656.053,120.117,-200.684,19.043,81.543,-32.715
1642302656.056,190.918,-359.863,18.066,60.059,-62.012
1642302656.060,74.219,-374.023,20.020,76.172,-99.609
1642302656.064,-25.391,-14.648,21.973,93.262,-81.055
1642302656.068,70.312,-45.410,25.391,68.359,-92.773
1642302656.072,180.176,-36.133,32.715,66.895,-92.773
1642302656.075,97.656,-64.453,26.855,63.965,-111.328
1642302656.079,-25.391,-126.465,20.996,64.941,-114.746
1642302656.083,37.109,-200.195,22.461,63.477,-123.047
1642302656.087,168.457,-282.227,22.461,64.453,-149.902
1642302656.091,133.789,-164.062,19.531,82.520,-142.578
1642302656.095,-5.859,-276.367,24.414,80.566,-154.785
1642302656.099,-3.418,-464.355,27.344,58.105,-143.555
1642302656.102,143.066,-501.465,23.438,42.969,-119.629
1642302656.106,164.551,-153.809,22.461,51.270,-99.121
1642302656.110,20.508,34.180,24.414,63.477,-44.434
1642302656.114,-34.180,-102.051,23.438,60.547,-36.621
1642302656.118,91.797,-143.555,23.438,52.734,-68.848
1642302656.120,177.246,9.277,29.785,65.430,-39.551
1642302656.124,66.406,-24.902,33.203,74.219,-37.598
1642302656.128,-35.156,-202.148,34.668,75.195,-58.594
1642302656.132,58.105,-165.039,33.691,63.477,-28.809
1642302656.136,180.664,-133.789,34.180,69.824,-4.395
1642302656.140,105.957,-244.629,39.551,93.262,-27.832
1642302656.144,-36.621,-582.520,41.016,96.191,-51.270
1642302656.147,12.207,-617.188,37.109,71.289,-30.273
1642302656.151,155.762,-99.121,36.133,68.359,4.395
1642302656.155,128.418,-17.578,36.133,84.961,5.859
1642302656.159,-18.555,-231.445,31.250,88.867,-43.457
1642302656.163,-32.227,-131.348,29.297,93.262,-16.602
1642302656.180,105.469,55.176,27.832,86.426,38.086
1642302656.184,158.691,-37.109,29.297,69.336,21.973
1642302656.188,28.320,-164.551,34.180,71.289,-0.977
1642302656.192,-49.805,-128.906,36.621,70.801,-17.090
1642302656.196,64.453,-55.664,32.715,54.199,-18.555
1642302656.200,144.043,-259.277,31.250,49.316,-20.508
1642302656.204,34.668,-574.707,36.133,39.062,-25.391
1642302656.207,-73.242,-347.168,33.691,33.691,-25.879
1642302656.211,2.930,-36.621,29.785,24.414,-0.977
1642302656.215,126.953,-164.551,32.715,20.508,-3.906
1642302656.219,75.684,-216.309,32.227,26.855,-1.465
1642302656.223,-57.617,-64.941,33.691,16.602,13.184
1642302656.224,-32.227,-71.777,38.086,-4.883,9.766
1642302656.228,105.957,-123.535,32.715,-10.254,0.977
1642302656.232,112.305,-139.648,26.367,0.488,-20.508
1642302656.236,-17.578,-139.648,26.855,-5.859,-28.809
1642302656.240,-45.410,-196.777,26.367,-20.508,-26.855
1642302656.244,93.262,-270.996,21.973,-25.391,-8.301
1642302656.248,154.297,-295.898,23.438,-11.719,5.371
1642302656.251,18.555,-211.914,27.344,-0.488,-11.719
1642302656.255,-70.801,-193.848,31.250,5.859,-28.809
1642302656.259,32.227,-593.262,28.809,-1.465,-36.621
1642302656.263,133.789,-608.398,21.973,-8.301,-23.438
1642302656.267,51.758,-83.496,21.484,2.441,42.969
1642302656.285,-68.359,-171.875,21.973,17.578,35.645
1642302656.289,-8.301,-273.438,20.996,15.137,22.949
1642302656.293,134.277,-67.871,22.949,18.066,60.059
1642302656.297,97.168,42.969,23.438,34.668,100.586
1642302656.301,-58.105,-107.910,25.879,46.875,115.234
1642302656.305,-42.480,-357.910,30.273,43.457,74.219
1642302656.309,104.004,-378.418,25.879,39.062,58.105
1642302656.312,121.094,-128.418,21.484,46.387,128.906
1642302656.316,-17.578,-256.348,28.809,72.266,128.906
1642302656.320,-66.895,-580.078,37.109,62.012,71.777
1642302656.324,61.523,-288.086,37.109,30.762,100.098
1642302656.328,135.742,-5.371,30.762,36.621,153.809
1642302656.314,25.879,-141.113,30.762,36.133,132.812
1642302656.318,-65.430,-274.414,32.715,38.574,89.844
1642302656.322,40.039,-128.418,29.785,32.227,92.773
1642302656.326,151.855,-35.156,29.297,42.969,108.887
1642302656.330,65.430,-227.051,31.738,49.316,82.520
1642302656.334,-69.824,-412.598,38.086,34.180,53.711
1642302656.338,-21.484,-384.277,35.645,25.391,32.227
1642302656.341,121.582,-271.484,30.762,29.297,42.969
1642302656.345,99.609,-213.379,28.809,32.715,46.875
1642302656.349,-46.875,-224.609,31.738,29.785,1.953
1642302656.353,-56.152,-203.613,33.691,24.414,-28.809
1642302656.357,81.055,-178.223,31.250,20.996,-1.953
1642302656.359,104.980,-426.758,28.809,29.297,11.230
1642302656.363,-25.879,-402.344,32.227,40.527,-12.695
1642302656.367,-83.984,-126.953,27.344,23.926,-4.883
1642302656.371,27.344,-268.066,24.414,6.348,7.812
1642302656.375,97.656,-293.457,30.762,26.367,33.203
1642302656.379,-14.160,-212.891,30.273,36.621,30.762
1642302656.383,-107.422,-343.262,31.738,40.527,-11.719
1642302656.386,-18.066,-460.449,33.203,36.133,2.930
1642302656.390,106.445,-515.137,35.156,26.855,7.324
1642302656.394,50.293,-190.430,36.621,42.480,22.949
1642302656.398,-88.379,-50.293,33.203,57.129,48.828
1642302656.402,-55.664,-190.430,32.227,38.574,34.668
1642302656.405,91.797,-174.316,33.691,27.832,36.133
1642302656.409,87.891,-57.617,31.738,43.457,57.617
1642302656.413,-39.062,-98.633,26.367,49.805,62.500
1642302656.417,-52.734,-234.863,27.832,32.227,53.223
1642302656.421,82.031,-177.246,31.250,25.879,65.430
1642302656.425,130.859,-146.973,32.715,24.902,100.098
1642302656.429,-0.977,-284.180,33.691,26.855,78.613
1642302656.432,-73.242,-666.504,30.762,45.410,21.973
1642302656.436,40.039,-722.656,31.738,27.832,19.043
1642302656.440,146.484,-122.070,29.785,19.531,102.539
1642302656.444,48.828,-37.598,27.832,25.879,131.836
1642302656.448,-76.660,-299.316,29.297,28.320,62.500
1642302656.450,0.000,-148.926,28.320,35.156,90.820
1642302656.454,135.254,32.227,27.832,33.691,128.906
1642302656.458,97.656,-121.094,28.320,36.621,97.656
1642302656.462,-38.574,-210.938,33.203,40.527,96.191
1642302656.466,-36.621,-166.016,36.621,40.039,75.195
1642302656.470,95.703,-200.684,37.109,46.387,62.500
1642302656.474,106.934,-385.254,36.133,32.227,63.965
1642302656.477,-39.551,-559.570,34.668,21.484,43.457
1642302656.481,-71.777,-312.012,29.785,17.090,37.109
1642302656.485,64.453,-131.836,24.414,15.137,54.199
1642302656.489,126.953,-255.371,23.438,28.320,45.410
1642302656.493,0.488,-250.000,27.832,37.598,35.156
1642302656.495,-90.332,-103.516,31.738,46.875,38.574
1642302656.499,23.438,-112.793,25.391,7.812,20.020
1642302656.503,130.859,-167.969,26.367,-3.906,7.812
1642302656.507,59.570,-135.254,28.320,16.602,18.555
1642302656.511,-51.758,-212.402,24.902,14.648,0.000
1642302656.515,-11.230,-331.543,29.297,14.160,-8.789
1642302656.519,110.840,-483.398,31.250,8.789,20.020
1642302656.522,82.031,-416.992,31.738,0.977,20.020
1642302656.526,-54.199,-104.980,28.320,19.043,9.766
1642302656.530,-51.270,-125.000,20.020,25.391,23.438
1642302656.534,87.891,-145.020,17.578,17.578,28.809
1642302656.538,118.164,-80.078,19.043,17.090,9.766
1642302656.541,-11.230,-155.762,20.508,15.625,-8.301
1642302656.545,-60.059,-267.090,22.949,19.531,4.883
1642302656.549,62.500,-265.625,21.484,16.602,20.020
1642302656.553,134.277,-105.469,26.855,36.621,-0.977
1642302656.557,34.180,-52.246,35.645,60.547,-20.508
1642302656.561,-52.734,-381.348,30.273,59.082,-41.504
1642302656.565,22.461,-532.227,25.391,49.316,-44.434
1642302656.568,129.883,-149.414,24.902,51.758,-15.625
1642302656.572,65.430,20.020,26.855,63.965,6.348
1642302656.576,-67.871,-257.812,31.250,68.359,-19.043
1642302656.580,-24.902,-354.492,34.668,47.363,-39.551
1642302656.584,121.094,-86.426,34.180,38.086,-27.344
1642302656.600,116.699,-56.641,30.273,39.062,-26.367
1642302656.604,-27.344,-164.551,35.645,39.551,-10.742
1642302656.608,-50.781,-220.215,39.062,16.602,-19.531
1642302656.612,82.031,-213.379,40.039,-6.836,-17.090
1642302656.616,131.348,-56.641,37.109,0.488,17.090
1642302656.620,2.441,-409.180,32.715,-4.883,-16.602
1642302656.624,-71.289,-626.465,36.621,-7.324,-31.250
1642302656.627,47.363,-158.203,39.551,-8.789,-8.789
1642302656.631,131.348,-129.883,36.621,-11.230,-33.691
1642302656.635,28.320,-361.816,34.180,3.418,-72.266
1642302656.639,-78.613,-295.898,32.715,0.977,-55.664
1642302656.643,-0.488,-159.668,31.250,-21.484,-48.828
1642302656.645,123.047,-174.316,34.668,-19.043,-27.832
1642302656.649,69.336,-210.449,39.062,-5.371,-11.230
1642302656.653,-66.895,-176.270,37.109,10.254,-19.043
1642302656.657,-37.598,-119.141,34.180,9.766,3.906
1642302656.661,108.887,-168.945,32.715,12.695,10.254
1642302656.665,105.957,-280.273,28.320,25.391,11.230
1642302656.669,-42.480,-337.891,23.926,27.344,8.789
1642302656.672,-78.125,-373.535,25.879,20.508,-23.438
1642302656.676,49.805,-380.371,29.297,11.719,-5.859
1642302656.680,107.910,-617.188,28.809,19.531,-20.020
1642302656.684,-17.578,-382.812,27.832,23.926,1.465
1642302656.688,-106.445,-48.340,22.949,37.598,59.570
1642302656.689,4.395,-171.387,25.391,41.016,10.254
1642302656.693,120.605,-136.230,27.832,39.551,-4.395
1642302656.697,44.434,-5.859,23.438,50.293,27.344
1642302656.701,-80.078,-86.914,23.438,48.828,17.578
1642302656.705,-20.996,-214.355,20.020,31.250,-19.043
1642302656.709,116.699,-265.625,16.113,41.504,-53.223
1642302656.713,82.520,-280.273,22.461,73.242,-58.594
1642302656.716,-56.152,-239.746,26.367,73.242,-40.527
1642302656.720,-43.457,-487.793,26.367,35.156,-30.762
1642302656.724,106.445,-461.426,25.879,24.414,-11.719
1642302656.728,119.629,-67.871,23.926,43.457,-10.742
1642302656.732,-23.926,-178.223,26.367,44.922,-43.457
1642302656.734,-69.824,-325.195,32.227,50.781,-31.738
1642302656.738,59.570,-193.359,30.273,28.809,-63.965
1642302656.742,135.254,-7.812,28.320,22.949,-37.109
1642302656.746,23.926,-124.023,31.250,35.645,-11.230
1642302656.750,-68.848,-271.484,31.250,30.273,-37.109
1642302656.754,34.180,-271.973,29.297,20.996,13.672
1642302656.758,153.320,-211.914,29.785,12.695,35.156
1642302656.761,63.477,-284.668,28.809,16.602,35.156
1642302656.765,-70.312,-559.082,27.832,20.020,22.461
1642302656.769,-20.508,-306.152,34.180,10.254,32.227
1642302656.773,116.211,-54.199,32.227,7.812,49.805
1642302656.777,99.609,-168.457,24.902,10.254,68.359
1642302656.780,-45.410,-315.918,24.414,26.855,61.523
1642302656.784,-45.410,-190.918,21.484,25.879,57.617
1642302656.788,97.168,-83.008,18.066,6.836,66.895
1642302656.792,121.582,-216.309,22.949,15.137,65.430
1642302656.796,-9.766,-253.418,28.320,15.625,71.289
1642302656.800,-70.801,-258.301,32.715,26.855,70.801
1642302656.804,43.457,-312.988,33.203,36.621,56.641
1642302656.807,130.859,-511.719,27.832,20.020,17.578
1642302656.811,25.879,-514.160,25.391,11.230,-9.277
1642302656.815,-81.055,-138.184,26.855,28.809,35.156
1642302656.819,11.230,-165.527,23.926,29.297,23.926
1642302656.823,140.137,-189.453,22.461,18.066,19.043
1642302656.824,81.055,-81.055,27.344,20.508,25.391
1642302656.828,-56.152,-132.324,28.320,27.344,-13.672
1642302656.832,-30.762,-246.094,28.809,21.484,14.160
1642302656.836,108.398,-245.117,25.391,19.043,31.250
1642302656.840,105.957,-108.887,20.508,20.020,11.719
1642302656.844,-49.805,-225.098,21.973,28.809,2.930
1642302656.848,-81.055,-439.941,25.879,33.691,14.648
1642302656.851,61.523,-634.766,28.320,19.043,30.762
1642302656.855,110.840,-380.859,29.785,26.367,7.324
1642302656.859,-9.766,-73.730,22.461,40.039,10.254
1642302656.863,-84.473,-238.770,20.996,40.527,-4.883
1642302656.867,20.020,-260.742,29.297,36.621,-13.184
1642302656.869,118.164,-54.688,33.203,39.551,38.086
1642302656.873,24.902,8.301,30.273,46.875,83.984
1642302656.877,-83.008,-136.230,24.414,55.664,77.148
1642302656.881,-9.277,-157.715,20.996,44.922,64.453
1642302656.885,112.793,-9.277,20.508,42.969,101.074
1642302656.889,66.406,-94.238,24.414,46.875,104.004
1642302656.893,-77.148,-540.527,26.367,58.105,66.406
1642302656.896,-55.176,-632.812,27.832,67.871,62.012
1642302656.900,97.168,-122.559,27.344,54.688,89.844
1642302656.904,98.633,9.277,25.391,57.129,117.188
1642302656.908,-47.852,-149.902,32.227,62.988,97.656
1642302656.912,-86.426,-113.281,32.227,41.016,80.566
1642302656.930,50.293,-1.465,24.902,27.832,91.797
1642302656.934,124.023,-65.430,21.973,38.574,84.961
1642302656.938,0.000,-171.875,31.250,43.945,71.777
1642302656.942,-91.797,-165.039,35.645,37.109,43.945
1642302656.946,15.625,-148.926,23.438,28.320,44.922
1642302656.950,131.348,-311.035,21.484,34.180,60.059
1642302656.954,53.223,-479.980,31.250,50.781,42.969
1642302656.957,-80.566,-213.867,30.273,52.734,50.293
1642302656.961,-41.992,-122.070,28.320,31.738,49.805
1642302656.965,88.379,-353.027,29.297,26.855,44.922
1642302656.969,63.965,-318.359,27.832,30.273,53.711
1642302656.973,-72.266,-116.211,31.738,34.180,39.551
1642302656.974,-66.406,-75.684,38.086,31.738,54.199
1642302656.978,78.613,-108.398,38.574,19.531,60.059
1642302656.982,105.957,-107.422,34.180,18.066,47.363
1642302656.986,-31.738,-74.219,26.855,21.973,50.293
1642302656.990,-73.242,-158.203,21.973,17.578,31.250
1642302656.994,61.523,-298.828,22.949,3.906,20.508
1642302656.998,130.859,-332.031,24.902,6.836,35.156
1642302657.001,21.973,-179.199,26.855,23.926,54.199
1642302657.005,-70.312,-113.770,28.320,40.527,58.594
1642302657.009,13.672,-444.336,31.250,26.855,51.758
1642302657.013,136.230,-392.090,29.297,5.371,45.410
1642302657.017,81.543,-154.785,27.344,0.000,34.180
1642302657.018,-49.805,-371.094,26.855,8.789,38.086
1642302657.022,-10.742,-381.836,22.949,5.371,52.734
1642302657.026,129.395,-136.719,21.973,1.465,54.199
1642302657.030,108.887,-55.664,23.926,5.371,46.875
1642302657.034,-34.180,-257.812,24.902,4.395,21.484
1642302657.038,-43.945,-390.137,27.344,7.324,34.668
1642302657.042,101.562,-356.445,32.715,7.324,41.504
1642302657.045,141.113,-190.918,31.250,10.254,49.805
1642302657.049,10.254,-308.105,26.367,10.254,44.922
1642302657.053,-43.945,-562.012,28.809,10.742,35.156
1642302657.057,67.871,-219.238,27.832,14.160,62.500
1642302657.061,149.414,-20.508,24.414,14.648,69.336
1642302657.064,55.176,-134.766,26.855,8.301,69.336
1642302657.068,-63.477,-166.016,27.344,12.695,64.453
1642302657.072,0.977,-190.918,32.227,4.883,50.781
1642302657.076,127.930,-220.703,41.016,0.488,45.898
1642302657.080,76.172,-281.250,37.598,13.672,44.434
1642302657.084,-59.570,-434.570,29.785,18.555,18.555
1642302657.088,-34.180,-435.059,29.785,-2.441,0.977
1642302657.091,101.562,-204.590,21.484,-10.742,59.570
1642302657.095,103.516,-375.000,23.926,1.465,53.711
1642302657.099,-29.785,-462.402,32.715,8.789,19.043
1642302657.103,-59.082,-93.262,30.273,20.996,48.828
1642302657.107,79.590,-85.449,30.273,14.648,61.523
1642302657.110,133.301,-103.516,31.250,-4.395,75.195
1642302657.114,3.906,-30.273,31.738,2.441,80.078
1642302657.118,-64.941,-94.238,25.879,6.348,48.828
1642302657.122,41.016,-192.871,21.484,-5.371,42.969
1642302657.126,136.719,-139.160,25.879,-3.906,72.754
1642302657.130,47.852,-135.742,23.926,0.977,89.355
1642302657.134,-78.613,-299.316,23.438,10.742,46.387
1642302657.137,-19.043,-484.863,26.367,5.371,5.371
1642302657.141,109.863,-656.738,28.809,-3.418,20.020
1642302657.145,76.660,-294.922,30.273,0.977,68.359
1642302657.149,-62.988,-137.207,30.762,5.371,49.805
1642302657.153,-65.430,-310.547,31.250,-8.789,16.602
1642302657.154,75.195,-142.090,31.250,-16.602,54.199
1642302657.158,106.445,18.555,30.273,-2.441,85.449
1642302657.162,-39.062,-16.113,33.203,0.977,94.238
1642302657.166,-89.355,-151.855,34.180,-6.348,82.031
1642302657.170,51.758,-119.629,28.320,-11.230,84.473
1642302657.174,114.746,-142.090,30.273,3.906,80.566
1642302657.178,-4.395,-260.254,30.762,13.184,68.359
1642302657.181,-97.168,-562.988,30.762,-11.230,37.598
1642302657.185,-6.836,-624.023,34.668,-13.184,25.391
1642302657.189,114.746,-170.898,32.715,7.324,68.359
1642302657.193,45.898,-132.812,33.203,-1.465,65.918
1642302657.197,-77.148,-339.355,37.109,13.672,62.988
1642302657.199,-31.250,-235.840,40.039,13.672,67.871
1642302657.203,100.098,-116.699,37.109,-5.371,54.688
1642302657.207,79.590,-135.742,36.621,10.742,92.773
1642302657.211,-59.570,-174.805,40.527,20.020,115.723
1642302657.215,-61.523,-139.648,42.480,13.184,105.957
1642302657.219,81.543,-173.828,41.016,3.906,109.863
1642302657.223,114.258,-334.961,36.133,7.812,114.746
1642302657.226,-23.926,-555.176,31.738,20.996,75.684
1642302657.230,-79.102,-312.988,33.203,23.926,88.379
1642302657.234,44.434,-60.059,32.715,20.508,118.164
1642302657.238,126.465,-91.797,27.344,16.113,124.512
1642302657.242,18.555,-207.031,27.832,16.113,112.793
1642302657.245,-96.680,-193.848,36.133,42.480,102.051
1642302657.249,-11.230,-70.801,30.762,35.156,120.605
1642302657.253,110.352,-155.273,20.508,16.113,133.301
1642302657.257,49.805,-184.082,23.438,13.672,124.512
1642302657.261,-80.078,-66.895,24.902,21.484,131.348
1642302657.265,-47.852,-206.055,22.949,28.809,104.004
1642302657.269,96.680,-519.531,23.926,21.973,71.777
1642302657.272,100.098,-401.367,27.832,34.180,99.121
1642302657.276,-33.691,-58.105,30.273,46.875,107.910
1642302657.280,-55.664,-133.789,30.762,38.574,87.891
1642302657.284,74.219,-165.527,28.809,30.273,92.285
1642302657.288,120.605,-21.484,26.855,31.738,113.770
1642302657.289,-1.465,-26.367,29.785,42.969,96.191
1642302657.293,-71.777,-189.453,31.250,46.387,77.148
1642302657.297,38.086,-275.879,27.344,30.762,87.891
1642302657.301,137.207,-134.766,23.438,30.273,87.402
1642302657.305,42.969,-53.711,23.438,28.809,70.801
1642302657.309,-80.078,-344.727,22.949,34.668,42.480
1642302657.313,-10.254,-729.980,22.461,19.043,30.273
1642302657.316,125.977,-401.367,24.902,9.277,61.035
1642302657.320,85.449,38.086,22.949,27.832,93.262
1642302657.324,-57.129,-122.070,23.926,35.645,62.500
1642302657.328,-40.527,-189.941,22.949,41.016,41.504
1642302657.332,106.934,-9.766,22.461,21.973,78.125
1642302657.350,112.305,38.574,26.367,9.766,91.309
1642302657.354,-33.203,-190.430,24.414,23.438,26.367
1642302657.358,-77.637,-259.277,22.949,24.902,17.090
1642302657.362,49.805,-52.246,26.855,21.973,69.824
1642302657.366,111.816,-118.164,24.902,31.738,62.012
1642302657.370,-7.812,-336.914,20.508,28.320,46.387
1642302657.374,-87.891,-385.254,22.949,21.484,42.969
1642302657.377,12.207,-346.680,27.832,24.414,28.320
1642302657.381,119.141,-136.719,24.902,32.227,53.223
1642302657.385,39.062,-386.719,21.973,14.160,54.688
1642302657.389,-81.055,-605.957,23.438,4.883,-7.324
1642302657.393,-23.438,-178.711,23.438,15.137,10.742
1642302657.394,109.375,-98.633,24.902,20.996,35.645
1642302657.398,91.797,-169.434,28.320,30.273,24.414
1642302657.402,-39.551,-77.637,29.297,33.691,41.504
1642302657.406,-41.992,-71.289,27.832,28.809,28.320
1642302657.410,97.656,-116.211,27.344,43.457,28.809
1642302657.414,126.465,-180.664,24.902,54.199,45.898
1642302657.418,-6.836,-236.816,23.438,52.246,31.250
1642302657.421,-57.617,-229.004,26.367,45.410,2.441
1642302657.425,63.965,-371.094,28.809,45.898,-30.762
1642302657.429,135.742,-310.547,26.855,72.754,-0.488
1642302657.433,30.762,-50.293,22.461,67.383,20.996
1642302657.437,-67.383,-68.848,20.508,58.594,-14.648
1642302657.440,18.066,-351.562,19.531,44.434,-34.668
1642302657.444,137.207,-458.984,18.555,40.039,-21.484
1642302657.448,80.566,-98.633,24.414,59.082,-5.859
1642302657.452,-50.293,-77.148,28.809,61.523,-25.391
1642302657.456,-22.949,-185.059,25.879,49.316,-18.555
1642302657.460,113.281,-240.723,21.484,36.621,-27.832
1642302657.464,98.633,-212.891,24.414,47.363,-29.297
1642302657.467,-46.387,-117.188,28.320,72.754,-20.996
1642302657.471,-60.547,-502.441,30.762,56.152,-94.727
1642302657.475,85.938,-519.043,36.621,31.250,-110.352
1642302657.479,135.254,-1.953,33.691,29.297,-40.039
1642302657.483,-0.488,-212.402,26.855,29.785,-73.242
1642302657.484,-68.848,-385.254,24.902,37.598,-86.426
1642302657.488,49.805,-104.004,26.367,28.320,-52.734
1642302657.492,143.066,-8.301,24.902,26.855,-75.195
1642302657.496,42.480,-137.207,23.438,28.809,-82.031
1642302657.500,-69.824,-224.609,27.344,35.156,-90.820
1642302657.504,4.395,-329.102,27.832,30.762,-125.000
1642302657.508,131.836,-227.051,30.762,29.785,-91.309
1642302657.511,70.801,-232.910,31.250,29.785,-77.637
1642302657.515,-76.660,-552.246,23.926,27.344,-120.117
1642302657.519,-43.457,-276.855,18.555,43.457,-85.449
1642302657.523,102.539,-38.574,15.625,29.785,-66.895
1642302657.527,104.004,-107.422,16.602,17.578,-56.641
1642302657.530,-33.691,-113.281,20.020,32.715,-34.668
1642302657.534,-63.477,-166.016,26.367,27.832,-42.480
1642302657.538,66.406,-179.688,30.762,22.461,-15.625
1642302657.542,119.629,-189.453,32.715,31.738,8.789
1642302657.546,3.418,-244.141,33.691,29.785,-16.602
1642302657.550,-72.266,-303.711,28.320,39.551,-15.625
1642302657.554,27.832,-235.840,24.414,36.133,28.320
1642302657.557,129.395,-334.961,26.367,22.461,43.945
1642302657.561,46.387,-399.414,28.809,22.949,36.621
1642302657.565,-67.871,-41.016,31.738,25.879,73.242
1642302657.569,-7.324,-160.645,32.715,12.207,56.641
1642302657.573,117.188,-266.113,28.320,-1.953,48.340
1642302657.574,81.055,-75.195,22.949,-3.418,76.660
1642302657.578,-54.688,-54.199,23.438,3.906,74.219
1642302657.582,-38.574,-176.758,28.809,2.930,75.195
1642302657.586,104.980,-157.227,30.762,0.488,86.914
1642302657.590,110.840,-78.125,25.391,3.906,97.168
1642302657.594,-28.320,-180.176,30.273,15.137,98.145
1642302657.598,-68.848,-383.789,34.180,15.625,63.965
1642302657.601,58.105,-713.867,31.738,-0.488,3.418
1642302657.605,130.859,-393.066,31.250,10.742,27.344
1642302657.609,18.555,12.207,28.320,30.762,67.383
1642302657.613,-82.031,-123.047,28.320,45.410,45.410
1642302657.617,14.160,-126.953,29.785,24.414,35.156
1642302657.619,129.883,64.941,30.762,9.766,62.012
1642302657.623,52.734,34.180,34.180,21.484,37.598
1642302657.627,-76.172,-180.176,37.598,20.020,-11.719
1642302657.631,-35.156,-192.383,33.691,6.836,-11.719
1642302657.635,106.445,-89.844,26.367,15.625,-8.789
1642302657.639,83.496,-145.996,28.320,31.738,13.184
1642302657.643,-60.059,-499.023,32.227,17.578,-0.488
1642302657.646,-61.523,-629.395,30.762,-6.836,-33.691
1642302657.650,68.359,-259.277,30.762,-3.906,3.906
1642302657.654,104.980,-80.078,31.250,15.625,44.922
1642302657.658,-16.113,-240.723,26.855,17.090,38.574
1642302657.662,-70.312,-162.109,23.926,15.137,60.059
1642302657.680,53.223,-5.859,20.996,9.277,74.707
1642302657.684,133.301,-64.941,21.484,23.926,83.984
1642302657.688,14.648,-96.680,20.020,41.016,117.188
1642302657.692,-95.703,-62.012,17.578,43.457,118.652
1642302657.696,-3.906,-66.895,23.438,49.805,97.656
1642302657.700,123.535,-243.164,26.367,65.430,112.305
1642302657.704,63.965,-439.453,24.902,61.035,134.766
1642302657.707,-59.570,-211.426,29.785,55.664,135.254
1642302657.711,-25.391,-25.879,33.203,51.758,137.207
1642302657.715,97.656,-50.781,31.250,50.293,140.625
1642302657.719,93.750,-149.414,27.344,52.246,122.559
1642302657.723,-35.156,-259.766,25.391,54.199,77.637
1642302657.755,-52.246,-161.133,32.715,51.270,73.242
1642302657.759,75.195,-159.180,33.691,42.969,108.398
1642302657.763,115.723,-89.355,29.297,54.199,137.695
1642302657.767,-2.441,-33.203,31.250,54.688,89.355
1642302657.771,-66.406,-132.324,31.250,47.852,53.711
1642302657.775,34.668,-238.770,27.344,41.016,73.242
1642302657.779,122.070,-195.801,24.414,51.270,94.727
1642302657.782,37.109,-35.645,23.438,54.688,95.215
1642302657.786,-68.848,-110.352,20.508,35.156,58.594
1642302657.790,-8.301,-479.004,20.508,23.438,28.320
1642302657.794,104.980,-374.512,25.391,29.297,61.523
1642302657.798,65.430,36.621,30.762,35.645,100.098
1642302657.758,-68.848,-130.859,32.715,43.457,58.105
1642302657.762,-51.270,-303.711,32.715,41.504,50.781
1642302657.766,91.797,-188.965,34.180,22.461,80.566
1642302657.770,102.051,5.371,32.715,21.973,87.891
1642302657.774,-38.574,-155.762,27.344,30.762,77.148
1642302657.778,-74.219,-489.258,23.438,41.016,36.621
1642302657.782,62.500,-332.031,24.414,32.715,64.453
1642302657.785,129.395,-4.883,24.414,16.113,116.211
1642302657.789,3.418,-109.863,23.926,8.301,86.426
1642302657.793,-91.309,-249.512,29.785,-0.488,52.734
1642302657.797,11.719,-51.758,32.715,-9.766,63.477
1642302657.801,111.328,95.215,30.273,-3.906,95.215
1642302657.816,33.691,-99.609,30.273,2.441,53.223
1642302657.820,-83.496,-260.254,30.273,6.836,2.441
1642302657.824,-29.785,-186.523,23.926,2.441,-6.348
1642302657.828,107.422,-48.340,22.949,14.160,26.367
1642302657.832,76.660,-252.441,24.902,32.715,38.574
1642302657.836,-74.219,-804.688,27.344,28.320,-3.906
1642302657.840,-69.336,-615.723,30.273,28.809,-4.883
1642302657.843,80.078,-96.191,29.297,39.551,41.992
1642302657.847,95.703,-48.340,29.785,37.598,71.289
1642302657.851,-39.551,-59.082,29.785,34.180,60.547
1642302657.855,-80.566,-3.418,21.484,34.180,60.059
1642302657.859,45.898,-96.680,18.066,20.996,37.109
1642302657.859,120.117,-122.070,21.484,27.832,45.410
1642302657.863,10.742,-19.043,23.438,40.039,69.824
1642302657.867,-86.914,-62.012,26.855,38.574,47.363
1642302657.871,5.371,-189.453,30.273,35.156,32.715
1642302657.875,123.535,-172.852,29.297,34.180,46.387
1642302657.879,62.012,-186.523,29.785,33.691,41.992
1642302657.883,-63.965,-255.859,28.809,47.852,40.039
1642302657.886,-34.180,-314.941,21.973,42.969,25.879
1642302657.890,108.887,-668.945,23.926,13.184,-25.391
1642302657.894,100.586,-445.801,29.785,0.488,-5.859
1642302657.898,-43.457,-41.016,25.879,7.812,26.367
1642302657.902,-52.246,-114.746,26.855,4.883,27.832
1642302657.905,86.426,-83.984,26.855,-10.254,32.227
1642302657.909,124.512,38.574,23.926,-3.418,37.598
1642302657.913,2.930,-12.695,26.855,0.000,30.273
1642302657.917,-55.176,-151.367,29.785,0.000,21.484
1642302657.921,48.828,-108.398,30.273,-7.812,40.527
1642302657.925,124.512,-159.668,29.297,-13.672,24.902
1642302657.929,40.039,-264.160,30.273,3.906,17.090
1642302657.932,-62.012,-563.965,32.715,16.113,-11.230
1642302657.936,-3.418,-585.449,33.691,-6.348,-33.203
1642302657.940,112.793,-41.016,31.250,-21.484,48.340
1642302657.944,63.965,-106.934,27.832,-20.020,50.293
1642302657.948,-66.406,-328.613,29.785,3.418,19.531
1642302657.950,-36.133,-161.621,31.250,0.488,43.457
1642302657.954,104.980,-1.465,27.832,-12.695,64.453
1642302657.958,102.539,-103.027,22.949,-10.254,63.965
1642302657.962,-35.156,-266.113,25.391,-8.789,36.621
1642302657.966,-62.988,-155.762,32.227,-2.441,43.457
1642302657.970,66.895,-150.879,33.691,-10.742,59.082
1642302657.974,121.582,-308.105,29.785,-2.930,59.082
1642302657.977,-1.953,-467.773,23.926,1.953,29.297
1642302657.981,-82.031,-250.977,20.020,-14.648,27.832
1642302657.985,30.273,-7.812,28.320,-20.996,46.875
1642302657.989,119.141,-180.176,31.738,-19.531,28.320
1642302657.993,23.926,-287.109,33.203,-9.277,2.441
1642302657.996,-92.285,-130.371,35.156,6.348,6.836
1642302658.000,-29.297,-178.223,34.180,-6.348,4.883
1642302658.004,100.586,-311.523,35.645,-8.789,-6.836
1642302658.008,58.105,-257.812,37.598,-3.418,-8.301
1642302658.012,-90.332,-121.582,33.691,-3.906,10.742
1642302658.016,-82.031,-277.832,29.785,-8.789,-5.859
1642302658.020,60.547,-626.953,27.832,2.441,-41.016
1642302658.023,55.176,-578.613,34.668,3.418,-39.062
1642302658.027,-104.980,-276.855,39.062,-24.902,-34.668
1642302658.031,-157.227,-318.359,24.902,-40.527,-20.996
1642302658.035,-39.551,-423.828,15.137,-63.965,-33.203
1642302658.039,17.578,-375.977,22.461,-68.359,-42.969
1642302658.040,-106.445,-347.168,31.738,-38.574,-21.484
1642302658.044,-217.285,-526.855,34.668,-51.758,-15.137
1642302658.048,-141.602,-606.445,31.738,-100.098,-1.953
1642302658.052,-40.527,-417.480,33.691,-118.164,41.992
1642302658.056,-128.418,-490.723,39.062,-125.977,35.645
1642302658.060,-266.602,-734.863,37.109,-124.023,35.156
1642302658.064,-215.332,-975.098,36.621,-153.320,-4.883
1642302658.067,-76.172,-772.461,35.156,-167.480,-20.508
1642302658.071,-98.633,-364.746,34.180,-165.039,55.176
1642302658.075,-237.305,-454.590,33.691,-166.992,47.363
1642302658.079,-247.070,-544.434,34.180,-165.039,6.836
1642302658.083,-116.699,-347.168,35.156,-169.922,29.785
1642302658.100,-71.777,-264.648,32.715,-164.551,33.691
1642302658.104,-184.570,-404.297,37.109,-154.297,3.906
1642302658.108,-241.699,-443.359,38.574,-136.230,-5.371
1642302658.112,-121.094,-314.941,36.621,-146.484,-8.789
1642302658.116,-34.180,-219.238,39.551,-153.809,3.906
1642302658.120,-118.652,-380.859,38.574,-125.000,-10.742
1642302658.124,-201.172,-560.059,35.645,-102.051,-47.363
1642302658.127,-108.887,-350.098,34.668,-116.211,-4.883
1642302658.131,3.906,-43.945,39.551,-110.352,32.715
1642302658.135,-49.805,-368.652,40.527,-91.797,-20.508
1642302658.139,-155.762,-455.078,39.551,-72.266,-29.785
1642302658.143,-110.352,18.555,38.574,-75.195,0.000
1642302658.145,39.062,109.863,34.180,-68.359,16.113
1642302658.149,51.758,111.816,33.691,-35.645,22.949
1642302658.153,-64.453,100.098,35.156,-16.602,-19.531
1642302658.157,-69.824,108.887,33.203,0.977,-23.926
1642302658.161,59.082,135.254,28.809,-8.301,15.137
1642302658.165,107.910,51.270,28.809,-1.953,26.855
1642302658.169,-0.488,-50.293,30.762,24.414,-2.930
1642302658.172,-51.270,93.750,25.879,33.691,1.465
1642302658.176,71.777,-43.457,23.926,31.738,-33.203
1642302658.180,171.875,-264.160,26.367,38.574,-39.062
1642302658.184,92.285,-40.039,26.855,53.223,-8.301
1642302658.188,-13.672,40.039,25.879,67.383,-42.480
1642302658.190,57.129,-55.176,27.832,72.266,-28.809
1642302658.194,193.359,-1.465,27.344,90.332,-0.488
1642302658.198,149.902,210.938,27.344,89.355,27.832
1642302658.202,17.578,139.160,30.273,99.609,12.695
1642302658.206,50.781,-7.324,24.414,100.586,-4.395
1642302658.210,189.453,-68.359,20.020,81.543,3.418
1642302658.214,186.035,-83.984,24.414,94.727,1.953
1642302658.217,47.852,-63.477,21.973,100.098,-0.488
1642302658.221,13.672,-353.516,14.160,92.285,-35.156
1642302658.225,143.066,-377.441,15.137,92.285,-51.270
1642302658.229,218.750,144.043,15.137,110.840,34.180
1642302658.233,111.328,80.566,11.719,125.488,31.250
1642302658.235,19.043,-104.980,12.207,127.930,4.883
1642302658.239,116.699,-72.754,15.137,124.512,18.066
1642302658.243,224.609,5.859,16.602,137.695,0.488
1642302658.247,146.484,-111.816,19.531,146.484,-16.113
1642302658.251,27.832,-270.996,23.438,157.715,-6.836
1642302658.255,75.195,-248.047,23.438,144.531,-3.906
1642302658.259,219.727,-187.988,25.879,135.742,2.930
1642302658.262,190.918,-205.078,24.902,150.391,5.371
1642302658.266,33.203,-447.266,23.926,149.902,-20.020
1642302658.270,33.691,-187.012,22.949,146.484,14.160
1642302658.274,161.621,88.867,20.508,138.672,48.828
1642302658.278,188.965,12.695,17.578,142.578,43.945
1642302658.280,64.941,-52.246,21.973,154.785,37.109
1642302658.284,19.043,-25.879,29.297,154.297,38.086
1642302658.288,134.766,-55.176,24.902,139.160,10.254
1642302658.292,199.219,-99.121,20.020,126.953,33.691
1642302658.296,93.262,-165.527,20.996,140.137,43.457
1642302658.300,-6.836,-260.742,22.461,154.785,12.695
1642302658.304,76.172,-237.793,21.484,125.977,30.273
1642302658.307,194.824,-389.160,20.020,108.887,32.227
1642302658.311,133.301,-525.879,24.414,97.656,5.859
1642302658.315,4.883,-183.105,20.996,106.934,17.578
1642302658.319,37.109,-111.816,18.066,111.816,32.227
1642302658.323,169.922,-145.020,21.484,87.402,46.387
1642302658.325,164.062,-52.734,23.926,79.102,54.199
1642302658.329,18.066,-67.383,29.785,73.242,51.270
1642302658.333,-13.184,-200.195,31.250,65.430,52.246
1642302658.337,117.188,-174.316,29.297,68.848,80.566
1642302658.341,168.457,40.527,29.785,67.871,132.324
1642302658.345,37.598,-166.992,30.273,49.805,90.332
1642302658.349,-38.086,-416.504,23.926,40.039,65.430
1642302658.352,77.148,-668.945,24.414,34.180,46.387
1642302658.356,165.527,-340.332,33.691,43.457,96.191
1642302658.360,65.918,45.898,36.621,50.781,117.676
1642302658.364,-39.062,-201.660,32.715,48.828,50.293
1642302658.368,34.180,-165.527,27.344,28.809,73.242
1642302658.370,165.527,-24.414,26.367,20.508,70.801
1642302658.374,126.465,-67.871,27.344,29.297,38.086
1642302658.378,-16.113,-189.453,27.344,33.203,32.227
1642302658.382,-1.465,-197.754,28.320,20.996,25.391
1642302658.386,137.695,-90.820,25.879,9.277,22.949
1642302658.390,138.672,-166.016,25.391,18.555,18.066
1642302658.394,-4.883,-521.484,30.273,30.273,-1.465
1642302658.397,-40.039,-530.273,36.621,39.062,-10.254
1642302658.401,88.867,-94.238,34.668,24.902,10.254
1642302658.405,148.926,-80.566,23.926,18.066,16.602
1642302658.409,28.809,-304.688,23.438,42.480,12.207
1642302658.413,-59.570,-170.898,25.391,40.527,45.898
1642302658.414,33.203,-10.254,23.438,31.250,48.340
1642302658.418,143.066,-112.793,27.344,53.223,29.785
1642302658.422,65.430,-151.367,35.645,55.176,53.711
1642302658.426,-48.340,-115.234,36.621,61.035,53.711
1642302658.430,14.160,-89.355,33.691,68.359,46.875
1642302658.434,132.324,-274.414,41.504,70.801,47.852
1642302658.438,93.262,-549.805,48.828,78.125,35.156
1642302658.441,-40.039,-291.504,42.969,91.309,57.129
1642302658.445,-33.691,-81.543,37.598,97.656,66.406
1642302658.449,105.957,-149.902,33.203,79.102,59.082
1642302658.453,131.348,-113.281,27.832,63.965,78.125
1642302658.457,-13.184,-52.734,26.855,66.406,75.195
1642302658.475,-71.289,-161.621,29.297,62.012,60.547
1642302658.479,56.152,-315.430,32.715,43.945,68.848
1642302658.483,131.836,-222.168,33.691,43.945,57.617
1642302658.487,21.973,-122.559,33.203,45.410,22.461
1642302658.491,-61.035,-169.434,31.738,38.086,15.137
1642302658.495,28.809,-323.730,28.809,30.762,5.859
1642302658.499,133.789,-370.117,31.250,27.832,0.000
1642302658.502,62.012,-167.480,31.250,4.395,13.672
1642302658.506,-76.172,-115.723,28.809,-0.977,15.137
1642302658.510,-28.320,-478.027,33.691,0.977,-30.273
1642302658.514,116.699,-374.023,33.691,-18.555,-8.301
1642302658.518,98.633,-25.391,31.250,-24.414,20.996
1642302658.520,-39.062,-166.992,32.715,-14.160,2.441
1642302658.524,-47.852,-229.004,35.645,-8.301,18.555
1642302658.528,96.680,-121.094,33.203,-22.949,5.859
1642302658.532,140.137,-108.887,26.855,-29.785,15.137
1642302658.536,6.836,-298.828,32.227,-15.625,29.297
1642302658.540,-67.383,-465.332,36.133,-20.508,-1.465
1642302658.544,40.527,-362.793,33.691,-28.320,9.277
1642302658.547,128.418,-133.301,34.668,-18.066,29.297
1642302658.551,30.762,-229.492,33.691,-10.254,23.926
1642302658.555,-72.754,-672.852,34.668,-6.348,0.488
1642302658.559,5.859,-390.625,33.691,2.930,39.062
1642302658.563,125.977,18.066,33.203,26.367,72.266
1642302658.565,70.801,-126.465,34.668,14.160,39.062
1642302658.569,-64.941,-202.637,31.250,2.930,27.832
1642302658.573,-37.109,-112.305,35.156,10.254,33.691
1642302658.577,99.121,1.953,41.016,16.113,58.105
1642302658.581,97.168,-71.777,32.227,23.926,42.969
1642302658.585,-28.320,-284.668,26.855,26.367,1.953
1642302658.589,-58.594,-348.145,26.855,14.160,-2.930
1642302658.592,61.523,-315.918,27.832,20.508,-22.461
1642302658.596,113.281,-530.273,27.832,37.109,-51.270
1642302658.600,-13.184,-601.074,26.855,31.250,-58.105
1642302658.604,-76.660,-134.277,27.344,40.527,-0.977
1642302658.608,39.551,-94.238,26.367,28.809,-14.160
1642302658.610,129.883,-188.965,27.832,29.297,-43.457
1642302658.614,38.574,-72.266,31.738,44.922,-25.391
1642302658.618,-69.336,-117.188,28.809,45.410,-45.410
1642302658.622,-4.395,-196.289,21.973,33.691,-40.527
1642302658.626,122.070,-195.801,20.020,30.273,-9.766
1642302658.630,96.191,-221.191,27.344,37.598,-11.719
1642302658.634,-46.387,-292.969,35.156,36.133,-38.086
1642302658.637,-47.852,-418.945,25.879,25.879,-47.363
1642302658.641,95.703,-446.777,25.391,28.320,-22.461
1642302658.645,114.746,-249.512,34.180,40.039,-20.020
1642302658.649,-28.320,-92.285,31.250,46.875,-21.484
1642302658.653,-59.082,-222.656,21.484,35.645,-31.738
1642302658.654,81.543,-234.863,18.066,20.508,-34.180
1642302658.658,135.254,40.527,22.461,31.250,-13.672
1642302658.662,15.625,-31.250,24.902,47.852,-49.316
1642302658.666,-65.430,-228.516,32.715,45.898,-97.656
1642302658.670,34.668,-121.094,30.273,38.574,-56.152
1642302658.674,143.066,-115.234,25.879,46.387,-64.453
1642302658.678,62.500,-233.398,27.832,40.039,-97.656
1642302658.681,-54.199,-528.320,23.926,33.691,-121.094
1642302658.685,9.277,-560.547,24.414,30.273,-157.715
1642302658.689,125.977,-97.656,27.344,23.926,-137.695
1642302658.693,83.008,-102.539,25.879,28.320,-138.184
1642302658.697,-53.711,-183.105,25.391,27.832,-107.910
1642302658.700,-56.152,-185.059,24.414,13.184,-86.426
1642302658.704,82.520,-126.465,29.785,11.719,-84.961
1642302658.708,109.375,-139.160,33.691,12.207,-104.004
1642302658.712,-24.414,-316.406,31.738,16.602,-121.094
1642302658.716,-73.730,-248.047,33.203,10.254,-127.930
1642302658.720,61.523,-211.914,32.715,-8.301,-109.863
1642302658.724,134.277,-275.391,29.297,-9.766,-40.039
1642302658.727,6.836,-489.746,31.738,-7.324,-66.895
1642302658.731,-86.426,-298.828,38.086,3.906,-81.055
1642302658.735,-1.465,-87.402,38.086,-26.855,-77.148
1642302658.739,112.305,-122.559,36.133,-34.668,-63.477
1642302658.743,55.664,-102.051,33.203,-0.488,-30.273
1642302658.744,-85.938,-120.117,27.344,-2.441,-50.293
1642302658.748,-41.016,-94.727,28.320,-14.160,-13.672
1642302658.752,106.934,-76.660,29.785,-17.090,33.203
1642302658.756,90.820,-178.223,27.832,-12.695,23.438
1642302658.760,-44.922,-222.168,31.250,7.812,12.695
1642302658.764,-61.523,-284.668,32.227,11.719,30.273
1642302658.768,65.918,-550.781,32.715,12.695,47.852
1642302658.771,110.840,-574.219,30.762,17.578,78.125
1642302658.775,-7.812,-160.156,28.809,23.438,136.719
1642302658.779,-74.219,-64.453,26.367,42.969,168.945
1642302658.783,42.969,-152.344,30.762,37.598,169.434
1642302658.787,132.812,-19.043,31.250,33.203,192.383
1642302658.789,25.391,17.090,29.785,61.035,193.848
1642302658.793,-90.332,-221.191,31.250,73.242,145.996
1642302658.797,-18.066,-257.324,24.414,32.227,153.809
1642302658.801,119.629,-58.594,20.996,18.066,172.852
1642302658.805,71.777,-32.227,25.879,39.062,146.973
1642302658.809,-69.824,-334.961,29.785,44.922,104.492
1642302658.813,-41.016,-584.473,29.785,32.227,59.082
1642302658.816,98.633,-379.395,31.738,33.203,54.199
1642302658.820,107.910,6.348,31.738,47.363,110.840
1642302658.824,-19.043,-166.992,30.762,57.129,73.242
1642302658.828,-52.734,-547.363,36.621,37.109,-13.672
1642302658.832,69.336,-209.473,38.086,25.391,0.977
1642302658.850,114.258,16.602,32.227,43.945,26.367
1642302658.854,-8.789,-117.676,31.738,51.758,14.160
1642302658.858,-85.449,-200.684,33.691,49.316,-4.883
1642302658.862,27.832,-108.398,31.738,30.273,3.906
1642302658.866,133.301,-34.180,30.762,45.898,27.832
1642302658.870,35.156,-208.984,30.273,62.012,29.785
1642302658.874,-83.984,-370.605,26.855,42.480,28.320
1642302658.877,-17.090,-247.559,28.809,27.832,31.250
1642302658.881,115.234,-21.484,29.785,31.738,84.961
1642302658.885,85.938,-396.484,28.809,43.945,77.148
1642302658.889,-46.387,-605.469,28.809,41.504,47.852
1642302658.893,-37.598,-147.949,26.855,24.414,103.027
1642302658.895,93.750,-75.195,29.297,26.367,136.230
1642302658.899,104.492,-97.168,33.203,39.062,162.109
1642302658.903,-29.785,-24.902,29.297,32.227,175.293
1642302658.907,-79.102,-78.613,27.832,26.367,139.648
1642302658.911,43.945,-147.949,28.320,22.461,137.207
1642302658.915,117.676,-238.281,28.320,27.832,139.160
1642302658.919,6.836,-303.223,30.273,25.391,114.746
1642302658.922,-79.102,-177.246,34.180,27.832,108.887
1642302658.926,10.742,-261.719,33.203,18.555,85.449
1642302658.930,116.211,-453.613,34.668,23.438,77.148
1642302658.934,50.293,-170.410,35.156,53.711,90.332
1642302658.938,-74.707,-75.684,33.203,40.527,68.848
1642302658.939,-24.902,-262.207,30.273,9.277,42.969
1642302658.943,125.977,-186.035,26.855,14.648,46.875
1642302658.947,101.562,-17.578,30.762,24.414,56.641
1642302658.951,-50.293,-53.223,33.203,30.762,50.293
1642302658.955,-50.293,-293.945,32.715,35.156,12.695
1642302658.959,84.961,-419.434,30.762,31.250,-9.766
1642302658.963,106.934,-322.754,33.203,22.949,-7.324
1642302658.966,-19.043,-198.730,34.180,17.578,-6.348
1642302658.970,-68.848,-511.230,34.668,19.531,-37.598
1642302658.974,50.293,-526.855,31.250,1.465,-24.414
1642302658.978,137.695,-1.465,28.809,5.859,41.016
1642302658.982,39.551,-27.832,35.645,22.949,34.180
1642302658.984,-73.242,-222.656,33.691,21.484,-6.836
1642302658.988,-0.977,-91.797,32.227,10.254,15.625
1642302658.992,125.977,46.875,34.180,7.812,31.738
1642302658.996,63.477,-196.777,37.109,26.855,-5.859
1642302659.000,-76.660,-369.141,36.621,26.367,-22.949
1642302659.004,-35.645,-320.312,28.809,-7.324,-44.922
1642302659.008,102.539,-250.000,28.320,-9.766,-40.527
1642302659.011,94.238,-339.844,29.785,-6.348,-41.016
1642302659.015,-43.457,-574.219,30.762,-10.742,-78.613
1642302659.019,-65.918,-332.520,25.391,-3.906,-77.637
1642302659.023,69.336,-90.820,20.508,-1.465,-60.547
1642302659.027,125.977,-90.820,23.438,-0.488,-26.855
1642302659.029,0.488,-134.277,25.391,-16.113,-23.926
1642302659.033,-87.891,-129.395,28.320,-14.648,-37.598
1642302659.037,15.137,-89.355,29.785,-8.301,-20.508
1642302659.041,123.535,-134.766,30.273,-5.371,-23.926
1642302659.045,39.551,-208.984,30.273,9.277,-21.973
1642302659.049,-79.590,-339.355,33.691,22.461,-21.973
1642302659.053,-14.648,-359.375,34.180,9.277,-23.438
1642302659.056,112.305,-504.395,31.250,-1.465,-28.320
1642302659.060,65.430,-571.777,33.691,9.766,-28.809
1642302659.064,-67.383,-223.145,31.738,25.879,-20.508
1642302659.068,-48.828,-158.691,31.250,10.742,-17.090
1642302659.072,91.797,-180.176,32.715,2.441,-6.836
1642302659.075,111.328,-46.387,34.180,13.672,3.418
1642302659.079,-28.809,-40.039,32.227,19.531,-5.859
1642302659.083,-81.055,-184.082,30.762,23.438,-8.789
1642302659.087,45.898,-200.195,29.297,8.301,-2.930
1642302659.091,116.211,-58.594,26.855,18.555,0.977
1642302659.095,-4.395,-152.832,29.297,44.434,4.395
1642302659.099,-97.168,-425.781,26.855,32.715,-18.066
1642302659.102,8.301,-518.066,22.461,14.648,-23.438
1642302659.106,118.164,-247.559,24.902,20.508,0.977
1642302659.110,33.691,-89.355,22.949,18.066,5.371
1642302659.114,-88.867,-310.059,21.484,21.973,-36.621
1642302659.118,-27.832,-375.000,20.020,11.719,-56.152
1642302659.135,106.445,-31.250,19.043,11.719,0.488
1642302659.139,76.660,3.418,22.461,23.438,-2.930
1642302659.143,-61.523,-226.074,28.809,30.762,-55.176
1642302659.147,-58.594,-209.473,26.855,21.973,-29.785
1642302659.151,75.684,-38.574,25.879,10.254,4.395
1642302659.155,98.633,-120.605,23.926,16.602,3.418
1642302659.159,-28.320,-552.246,19.531,16.113,-38.086
1642302659.162,-82.520,-608.887,21.973,15.625,-55.664
1642302659.166,42.480,-100.098,22.949,17.090,13.672
1642302659.170,123.535,-26.367,22.949,29.297,26.855
1642302659.174,19.043,-157.227,23.438,43.457,1.465
1642302659.178,-77.637,-242.188,24.902,46.875,-4.883
1642302659.166,2.441,-216.309,22.461,30.762,3.906
1642302659.170,120.117,-118.164,17.090,6.836,22.949
1642302659.174,56.641,-314.941,21.973,2.930,-3.906
1642302659.178,-74.707,-256.348,25.391,16.113,-3.906
1642302659.182,-32.715,-84.961,18.555,9.277,23.438
1642302659.186,106.445,-244.141,21.484,0.488,30.273
1642302659.190,83.984,-324.707,24.902,3.906,13.672
1642302659.193,-52.246,-162.598,24.414,9.277,10.254
1642302659.197,-64.453,-65.918,27.832,14.648,29.785
1642302659.201,68.848,-275.391,24.414,2.930,8.301
1642302659.205,117.676,-523.438,24.414,-2.441,-14.648
1642302659.209,-13.672,-257.812,26.855,5.371,7.812
1642302659.225,-77.148,-117.188,22.949,12.695,28.809
1642302659.229,30.762,-182.129,24.902,2.441,16.602
1642302659.233,114.746,-187.500,26.367,1.465,34.668
1642302659.237,25.879,-233.398,24.902,15.137,28.320
1642302659.241,-77.148,-131.836,25.879,29.785,29.785
1642302659.245,2.930,-354.980,24.902,11.230,68.848
1642302659.249,127.930,-470.703,26.855,3.906,67.383
1642302659.252,76.172,-86.914,26.367,4.395,58.105
1642302659.256,-53.711,-93.262,24.902,15.137,56.152
1642302659.260,-33.203,-263.672,28.809,22.949,56.152
1642302659.264,99.609,-221.191,27.344,-2.441,49.805
1642302659.268,96.680,-48.828,27.344,-5.371,66.406
1642302659.270,-41.016,-147.461,32.227,11.719,46.875
1642302659.274,-68.848,-286.133,31.250,18.066,20.508
1642302659.278,60.547,-145.020,32.715,12.695,29.785
1642302659.282,117.676,-14.160,36.621,24.902,50.781
1642302659.286,2.930,-177.246,36.621,41.504,26.367
1642302659.290,-74.219,-437.500,37.109,48.340,-10.742
1642302659.294,24.414,-417.480,32.715,30.762,-7.324
1642302659.297,125.000,-255.859,27.344,20.020,17.578
1642302659.301,49.316,-307.617,30.762,28.320,6.836
1642302659.305,-58.105,-716.309,32.227,30.762,-38.574
1642302659.309,-1.465,-492.188,32.715,18.555,-14.160
1642302659.313,117.188,-99.609,34.668,26.367,-4.395
1642302659.314,76.660,-186.035,38.574,47.363,11.230
1642302659.318,-64.941,-255.371,40.039,52.734,9.766
1642302659.322,-45.410,-128.418,38.574,52.246,24.902
1642302659.326,99.609,-55.664,36.621,33.203,40.039
1642302659.330,100.098,-160.156,31.738,23.438,16.602
1642302659.334,-40.039,-315.918,29.297,33.203,14.648
1642302659.338,-76.172,-333.008,31.250,35.645,48.340
1642302659.341,52.734,-179.199,36.133,21.973,62.988
1642302659.345,129.883,-419.434,41.504,25.879,33.691
1642302659.349,26.855,-612.305,40.527,48.340,25.879
1642302659.353,-66.895,-200.684,35.156,48.340,58.105
1642302659.357,15.137,-55.176,31.250,33.691,97.656
1642302659.359,124.023,-76.172,27.344,28.320,110.352
1642302659.363,54.688,6.348,29.785,20.508,112.305
1642302659.367,-73.730,-34.180,34.668,26.367,87.891
1642302659.371,-25.879,-183.594,35.645,23.438,58.105
1642302659.375,117.188,-132.812,36.621,22.949,86.426
1642302659.379,93.750,-107.422,33.203,29.785,100.098
1642302659.383,-56.641,-219.727,37.109,32.227,79.102
1642302659.386,-58.594,-413.086,37.109,34.668,30.762
1642302659.390,88.379,-521.484,32.715,32.715,15.625
1642302659.394,122.559,-135.742,32.715,28.320,63.477
1642302659.398,-21.973,-4.883,31.250,37.109,39.062
1642302659.402,-84.961,-231.934,33.691,35.645,3.418
1642302659.405,43.945,-194.824,36.621,13.184,17.090
1642302659.409,125.000,25.879,31.250,9.277,41.016
1642302659.413,14.160,-14.648,32.715,31.738,19.531
1642302659.417,-88.379,-289.551,37.109,42.480,-8.301
1642302659.421,-0.488,-260.742,35.156,21.484,22.461
1642302659.425,126.953,-114.258,36.621,27.344,52.734
1642302659.429,68.359,-225.586,36.621,28.809,25.879
1642302659.432,-71.777,-550.781,35.645,23.926,-10.254
1642302659.436,-37.109,-543.945,37.598,9.277,0.488
1642302659.440,110.840,-43.457,38.086,2.930,57.129
1642302659.444,113.770,20.508,37.598,21.973,84.473
1642302659.448,-29.785,-145.508,37.109,25.879,69.824
1642302659.450,-56.152,-127.930,34.180,13.672,65.918
1642302659.454,76.660,48.828,37.109,8.301,111.328
1642302659.458,125.000,-41.016,41.504,22.949,119.629
1642302659.462,6.348,-210.938,37.598,31.250,88.867
1642302659.466,-70.312,-196.289,33.203,18.555,72.754
1642302659.470,32.227,-270.020,30.762,13.672,51.758
1642302659.474,130.859,-310.547,28.320,16.113,70.312
1642302659.477,33.203,-534.180,29.297,-3.906,58.105
1642302659.481,-82.520,-383.789,34.180,-2.441,38.086
1642302659.485,-5.371,-125.488,34.180,0.488,27.344
1642302659.489,124.023,-148.926,36.621,1.465,33.203
1642302659.493,78.125,-123.535,40.527,11.719,45.410
1642302659.495,-57.617,-120.605,36.621,20.508,17.090
1642302659.499,-39.062,-168.945,34.668,12.207,-9.277
1642302659.503,101.562,-167.969,33.691,-4.395,8.789
1642302659.507,107.910,-41.504,27.344,2.441,53.223
1642302659.511,-29.297,-58.594,24.414,5.371,25.391
1642302659.515,-61.523,-242.188,24.414,-0.977,4.395
1642302659.519,64.453,-473.633,23.438,6.836,20.508
1642302659.522,127.441,-537.109,26.367,22.949,-3.418
1642302659.526,4.883,-153.320,27.832,23.438,11.719
1642302659.530,-92.285,-80.566,28.320,19.043,21.484
1642302659.534,5.859,-196.289,29.297,9.277,0.488
1642302659.538,119.629,-95.215,26.367,22.461,-1.953
1642302659.539,46.875,-11.230,23.438,31.738,20.508
1642302659.543,-73.242,-161.133,26.855,26.855,12.695
1642302659.547,-19.043,-295.898,30.762,12.207,-8.789
1642302659.551,109.375,-151.367,29.297,4.395,9.766
1642302659.555,87.891,-69.824,32.715,19.531,21.973
1642302659.559,-47.852,-303.711,33.203,26.367,33.203
1642302659.563,-56.641,-557.129,31.250,14.648,41.992
1642302659.566,83.496,-278.320,31.250,3.418,47.363
1642302659.570,112.793,-68.359,24.902,10.742,59.570
1642302659.574,-25.879,-284.668,22.949,14.160,48.828
1642302659.578,-83.008,-299.805,24.902,20.020,60.059
1642302659.582,55.176,-69.824,25.879,18.066,63.477
1642302659.599,146.973,-47.852,26.367,-1.465,39.551
1642302659.603,29.297,-133.301,23.926,0.488,50.781
1642302659.607,-81.055,-148.438,32.715,19.531,66.895
1642302659.611,7.324,-62.012,39.551,16.113,63.965
1642302659.615,126.953,-27.832,34.668,20.020,58.105
1642302659.619,63.477,-216.309,33.203,17.578,36.133
1642302659.623,-74.707,-350.586,35.645,25.391,16.602
1642302659.626,-39.062,-177.734,31.738,19.531,21.973
1642302659.630,103.027,-112.305,29.297,-0.488,-1.465
1642302659.634,92.285,-286.133,36.621,7.324,-16.113
1642302659.638,-37.109,-305.176,39.062,12.695,-19.043
1642302659.642,-50.293,-238.281,42.969,14.160,-15.625
1642302659.645,78.613,-192.383,39.062,14.160,9.766
1642302659.649,117.676,-324.219,30.762,20.508,16.113
1642302659.653,-9.277,-291.992,34.668,32.227,0.977
1642302659.657,-65.430,-152.344,34.180,28.320,-21.973
1642302659.661,43.457,-241.211,27.832,13.184,-27.832
1642302659.665,122.559,-252.930,27.344,14.648,17.578
1642302659.669,30.273,-263.184,29.785,19.531,14.648
1642302659.672,-73.242,-160.645,29.297,30.273,3.906
1642302659.676,-0.977,-227.051,31.738,20.020,20.996
1642302659.680,120.117,-416.992,32.227,12.207,27.344
1642302659.684,72.754,-217.773,22.461,28.809,34.668
1642302659.688,-61.035,-131.836,17.578,38.086,24.902
1642302659.690,-30.273,-204.590,20.020,35.156,13.672
1642302659.694,105.957,-160.645,21.973,20.508,24.414
1642302659.698,100.098,-130.371,21.484,27.344,35.645
1642302659.702,-30.762,-112.305,21.484,62.988,48.828
1642302659.706,-54.199,-239.746,25.391,56.641,43.945
1642302659.710,76.172,-407.715,23.438,21.484,1.953
1642302659.714,127.930,-269.531,24.414,23.438,33.203
1642302659.717,11.230,-159.668,21.484,30.762,52.734
1642302659.721,-64.453,-488.281,21.484,36.621,5.371
1642302659.725,32.715,-534.668,24.902,31.738,10.742
1642302659.729,136.230,-46.387,23.438,35.645,54.688
1642302659.733,65.918,-88.867,26.367,47.852,52.246
1642302659.735,-56.152,-283.691,29.297,61.523,35.645
1642302659.739,-7.324,-180.664,31.250,50.781,35.156
1642302659.743,120.605,-12.207,34.180,39.062,68.848
1642302659.747,79.590,-88.379,29.785,47.852,80.078
1642302659.751,-60.547,-215.820,28.809,50.781,64.453
1642302659.755,-49.805,-290.039,31.738,35.156,54.199
1642302659.759,92.773,-265.625,34.180,28.809,70.801
1642302659.762,114.258,-238.770,37.109,30.762,68.359
1642302659.766,-25.879,-616.211,38.574,34.668,43.945
1642302659.770,-65.918,-477.539,36.621,26.855,65.918
1642302659.774,62.500,-53.711,32.227,13.672,90.820
1642302659.778,125.977,-67.383,33.203,25.879,95.215
1642302659.779,14.648,-93.750,33.203,33.203,99.609
1642302659.783,-68.359,-66.406,29.785,35.156,88.379
1642302659.787,26.367,-67.383,29.297,25.391,83.984
1642302659.791,126.465,-84.961,34.668,32.715,86.426
1642302659.795,52.734,-127.930,32.715,35.645,64.941
1642302659.799,-60.059,-208.008,31.738,28.320,68.359
1642302659.803,-13.672,-250.488,34.180,25.391,67.871
1642302659.806,107.422,-461.426,33.691,11.719,23.926
1642302659.810,87.891,-468.262,32.715,15.137,6.348
1642302659.814,-50.293,-157.227,29.297,31.250,-6.348
1642302659.818,-59.082,-191.406,29.785,28.809,-39.062
1642302659.822,81.543,-266.113,37.109,25.879,-30.762
1642302659.825,118.164,-97.656,36.133,24.414,-9.277
1642302659.829,-10.742,-38.574,33.203,35.156,-39.551
1642302659.833,-66.406,-207.520,37.109,53.711,-65.918
1642302659.837,52.246,-270.508,40.527,47.852,-83.984
1642302659.841,127.930,-108.398,40.039,45.898,-70.801
1642302659.845,24.414,-228.516,38.086,41.992,-83.984
1642302659.849,-83.008,-511.719,40.527,35.645,-112.793
1642302659.852,1.465,-610.352,41.992,21.484,-100.586
1642302659.856,124.023,-248.535,41.992,20.020,-57.129
1642302659.860,58.105,35.645,36.621,31.738,-20.020
1642302659.864,-75.684,-171.387,36.133,34.668,-21.973
1642302659.868,-52.734,-296.387,39.062,27.832,-39.062
1642302659.870,83.008,-79.590,40.527,23.926,-22.461
1642302659.874,79.102,20.996,42.480,28.809,-5.859
1642302659.878,-55.176,-250.488,49.805,37.109,-17.090
1642302659.882,-70.801,-349.609,47.363,21.484,-31.250
1642302659.886,55.664,-249.023,39.551,11.230,-42.969
1642302659.890,81.543,-294.922,30.762,6.836,-21.484
1642302659.894,-61.523,-606.445,27.832,-14.648,-22.461
1642302659.897,-131.348,-700.195,41.016,-21.973,-29.297
1642302659.901,-29.785,-317.871,40.527,-35.156,-9.766
1642302659.905,56.641,-213.867,42.480,-29.297,27.344
1642302659.909,-38.574,-337.402,47.852,-34.180,27.832
1642302659.913,-170.898,-455.078,54.688,-62.988,-25.391
1642302659.915,-114.746,-420.410,53.711,-90.820,-16.602
1642302659.919,7.812,-476.074,47.363,-109.375,13.672
1642302659.923,-54.688,-653.809,50.293,-122.559,-0.977
1642302659.927,-217.773,-657.715,54.199,-133.301,-17.578
1642302659.931,-213.379,-684.570,50.781,-153.320,-44.922
1642302659.935,-72.754,-832.520,38.574,-162.109,-26.855
1642302659.939,-64.453,-982.910,38.574,-159.180,-17.578
1642302659.942,-210.449,-875.000,42.480,-168.945,-45.898
1642302659.946,-256.348,-646.484,44.434,-175.781,-20.996
1642302659.950,-121.094,-606.445,50.781,-174.805,4.883
1642302659.954,-45.898,-522.949,53.223,-159.180,17.578
1642302659.958,-165.039,-387.695,48.340,-150.879,21.973
1642302659.974,-242.188,-387.207,46.875,-135.742,-2.441
1642302659.978,-118.164,-381.348,45.898,-121.094,-3.906
1642302659.982,5.371,-273.438,44.434,-98.633,-11.230
1642302659.986,-60.059,-161.621,42.480,-76.660,-34.668
1642302659.990,-160.645,-160.156,41.504,-62.500,-20.508
1642302659.994,-86.914,-447.754,42.969,-52.734,-18.555
1642302659.998,42.480,-533.203,38.086,-39.062,-31.738
1642302660.001,20.996,-62.012,32.227,-13.672,-20.020
1642302660.005,-93.262,67.871,30.762,9.277,-12.207
1642302660.009,-83.984,-35.645,25.391,16.113,-5.371
1642302660.013,62.012,123.535,25.879,23.926,21.484
1642302660.017,101.562,256.348,29.785,42.480,26.855
1642302660.019,-20.508,125.977,27.832,64.453,18.555
1642302660.023,-61.035,-2.930,23.438,65.430,22.461
1642302660.027,66.895,94.238,19.043,33.203,15.625
1642302660.031,155.273,208.496,20.508,41.504,18.066
1642302660.035,52.246,44.922,24.902,64.453,-7.324
1642302660.039,-43.457,-196.777,23.926,68.359,-13.672
1642302660.043,44.434,-129.883,20.020,60.059,25.391
1642302660.046,155.762,29.785,16.602,57.617,36.133
1642302660.050,92.285,-152.832,15.137,67.383,-14.648
1642302660.054,-27.344,-601.074,15.137,83.008,-69.824
1642302660.058,30.762,-398.438,15.137,90.332,-63.477
1642302660.062,170.898,66.895,16.113,83.496,-18.555
1642302660.064,156.738,24.902,19.043,72.754,-7.324
1642302660.068,20.996,-60.547,20.996,83.984,-19.531
1642302660.072,12.695,21.484,21.973,90.332,8.301
1642302660.076,149.902,140.137,22.949,88.379,68.848
1642302660.080,195.801,60.059,22.461,93.750,41.992
1642302660.084,69.824,-157.227,22.461,96.191,3.906
1642302660.088,-10.254,-252.930,27.832,103.027,12.695
1642302660.091,101.074,-114.746,30.762,97.168,14.160
1642302660.095,202.637,-227.539,27.344,99.121,43.945
1642302660.099,110.840,-308.105,25.879,108.887,38.574
1642302660.103,-1.953,-155.273,27.832,111.328,-28.320
1642302660.107,56.152,-240.723,24.902,94.238,10.254
1642302660.109,169.434,-184.570,24.902,86.914,48.340
1642302660.113,125.488,-27.832,27.344,99.609,13.184
1642302660.117,-15.625,12.695,23.438,112.793,4.883
1642302660.121,4.883,-87.891,19.043,87.402,23.438
1642302660.125,149.902,-108.398,21.973,69.336,17.090
1642302660.129,157.715,-120.117,24.902,78.125,3.906
1642302660.133,22.461,-202.148,22.461,82.031,11.719
1642302660.136,-0.977,-325.195,25.391,76.172,19.531
1642302660.140,126.465,-409.180,26.855,59.570,50.781
1642302660.144,165.527,-90.820,25.391,74.707,57.129
1642302660.148,46.875,17.090,28.809,91.309,-2.930
1642302660.152,-29.297,-115.234,29.785,80.566,30.762
1642302660.156,70.801,-23.438,24.414,73.730,88.379
1642302660.160,169.434,13.184,22.461,82.031,71.289
1642302660.164,83.008,-93.750,25.879,73.730,42.969
1642302660.168,-29.785,-207.031,29.785,67.871,61.035
1642302660.172,38.574,-251.953,29.785,62.012,24.414
1642302660.176,167.480,-166.992,29.297,61.523,24.902
1642302660.180,129.395,-160.645,34.180,68.359,65.918
1642302660.183,-10.742,-419.922,36.133,74.707,58.594
1642302660.187,0.000,-487.305,27.832,64.453,30.273
1642302660.191,129.395,-31.738,25.391,57.617,52.246
1642302660.195,152.344,59.082,29.785,63.477,90.332
1642302660.199,28.809,-161.133,33.203,62.988,43.457
1642302660.200,-25.391,-149.414,32.715,68.848,37.598
1642302660.204,98.145,15.625,23.926,70.312,83.984
1642302660.208,160.645,-14.160,21.484,65.430,109.375
1642302660.212,44.434,-123.535,33.691,65.918,96.191
1642302660.216,-46.387,-175.293,38.574,74.219,77.148
1642302660.220,45.898,-235.840,33.691,57.129,80.078
1642302660.224,160.156,-230.469,35.156,49.316,112.793
1642302660.227,86.914,-559.570,41.016,55.664,79.590
1642302660.231,-34.180,-500.488,39.062,53.223,39.551
1642302660.235,9.766,-97.656,36.133,43.945,63.965
1642302660.239,140.137,-102.539,37.109,48.340,64.453
1642302660.243,124.023,-72.266,37.109,51.270,76.660
1642302660.245,-8.301,-23.438,39.551,56.641,74.219
1642302660.249,-15.137,-76.172,37.598,46.875,60.059
1642302660.253,115.723,-125.977,33.691,32.715,56.641
1642302660.257,145.996,-97.656,32.715,55.664,54.199
1642302660.261,9.277,-57.129,34.668,72.754,64.453
1642302660.265,-61.523,-217.285,36.621,59.082,57.617
1642302660.269,57.617,-508.301,36.133,26.855,42.969
1642302660.272,148.438,-551.270,34.180,20.996,23.926
1642302660.276,51.270,-178.711,32.227,41.016,41.504
1642302660.280,-53.711,-102.539,32.715,49.316,49.805
1642302660.284,23.926,-294.434,37.598,39.062,22.949
1642302660.288,136.719,-153.320,37.598,30.762,43.945
1642302660.304,73.730,12.695,33.691,31.738,64.941
1642302660.308,-56.152,-158.691,25.879,41.992,39.062
1642302660.312,-32.715,-260.254,22.461,30.762,28.809
1642302660.316,98.145,-79.102,25.879,22.461,56.152
1642302660.320,103.516,-6.836,27.344,19.043,79.102
1642302660.324,-31.738,-252.930,32.227,28.320,71.777
1642302660.328,-61.035,-578.613,39.062,36.133,27.832
1642302660.331,75.684,-260.254,32.227,14.160,48.828
1642302660.335,123.047,48.340,29.785,21.484,61.035
1642302660.339,-2.930,-117.676,31.250,24.902,41.016
1642302660.343,-71.777,-296.387,26.855,16.113,26.855
1642302660.347,41.992,-207.520,27.344,23.438,5.859
1642302660.336,147.461,38.086,27.832,42.969,44.922
1642302660.340,51.758,-174.316,32.715,41.016,28.320
1642302660.344,-83.496,-350.098,40.039,23.438,-10.742
1642302660.348,-19.531,-147.949,35.645,7.812,-3.906
1642302660.352,119.141,-67.383,35.156,23.438,2.441
1642302660.356,68.848,-225.098,36.133,29.297,-3.906
1642302660.360,-78.613,-394.531,38.086,39.551,-16.113
1642302660.363,-52.246,-270.996,38.086,37.109,-14.648
1642302660.367,95.703,-75.684,29.785,13.672,-6.348
1642302660.371,106.445,-372.559,30.273,35.645,-8.789
1642302660.375,-31.738,-526.855,34.668,43.945,-30.762
1642302660.379,-73.730,-177.734,33.691,27.832,-18.066
1642302660.394,52.246,-78.125,36.133,14.648,33.203
1642302660.398,119.629,-212.402,34.668,16.602,8.789
1642302660.402,1.953,-184.082,30.273,35.645,-6.836
1642302660.406,-82.031,-78.613,29.297,39.062,16.113
1642302660.410,27.344,-106.934,32.227,27.344,25.879
1642302660.414,128.906,-488.770,33.691,20.020,28.809
1642302660.418,47.363,-559.570,30.762,16.113,-11.230
1642302660.421,-61.523,-175.293,31.250,33.691,-18.555
1642302660.425,-1.953,-175.781,32.715,38.086,3.418
1642302660.429,122.070,-114.746,34.668,32.715,28.809
1642302660.433,90.332,10.742,34.180,21.973,36.133
1642302660.437,-46.875,-75.195,35.645,23.438,2.930
1642302660.439,-50.781,-174.805,39.062,27.832,11.230
1642302660.443,81.543,-152.832,38.574,18.066,9.766
1642302660.447,110.840,-51.758,42.480,30.273,3.418
1642302660.451,-11.719,-72.266,41.504,33.203,20.996
1642302660.455,-63.965,-322.754,36.621,25.391,-30.273
1642302660.459,57.617,-354.004,35.645,38.574,-1.953
1642302660.463,137.207,-216.309,33.203,44.922,45.898
1642302660.466,32.227,-172.363,31.738,43.945,13.672
1642302660.470,-63.477,-491.211,33.203,41.504,-14.160
1642302660.474,23.438,-636.230,33.203,8.789,-34.180
1642302660.478,138.184,-106.934,37.109,11.230,4.395
1642302660.482,64.941,-13.184,38.574,29.297,38.086
1642302660.484,-72.266,-175.293,36.621,40.527,24.902
1642302660.488,-35.156,-131.836,37.598,30.762,14.160
1642302660.492,101.562,-16.113,40.527,20.996,28.320
1642302660.496,96.680,-85.449,36.621,35.645,23.926
1642302660.500,-29.785,-219.238,32.715,45.410,19.043
1642302660.504,-52.734,-279.785,32.715,43.945,25.879
1642302660.508,82.520,-292.969,28.320,27.344,11.719
1642302660.511,124.023,-294.434,28.320,37.109,22.461
1642302660.515,-2.930,-649.902,30.762,45.410,-0.977
1642302660.519,-57.129,-492.188,32.715,32.715,-2.441
1642302660.523,49.316,-180.176,36.621,25.391,-16.113
1642302660.527,129.883,-169.434,34.180,26.855,20.508
1642302660.529,37.598,-85.938,26.855,31.738,50.781
1642302660.533,-71.289,-75.195,26.367,45.898,24.902
1642302660.537,-1.465,-80.566,29.785,42.480,19.531
1642302660.541,123.047,-64.941,31.738,42.480,55.176
1642302660.545,73.730,-68.359,32.227,38.574,56.152
1642302660.549,-57.129,-260.742,34.668,41.504,-1.465
1642302660.553,-31.250,-326.660,37.109,47.363,17.578
1642302660.556,105.957,-469.238,37.109,32.715,20.996
1642302660.560,105.469,-481.445,36.133,24.902,-6.836
1642302660.564,-26.367,-82.520,35.156,27.344,48.340
1642302660.568,-51.758,-219.238,33.691,42.480,30.273
1642302660.572,66.895,-375.000,35.645,57.617,-5.859
1642302660.573,109.863,-134.766,31.250,45.410,23.926
1642302660.577,-10.254,-11.230,29.297,24.414,42.480
1642302660.581,-78.125,-99.609,32.227,15.137,85.938
1642302660.585,25.391,-195.801,34.180,6.836,49.316
1642302660.589,120.117,-98.633,36.133,14.648,14.648
1642302660.593,38.574,-152.344,34.668,24.902,26.367
1642302660.597,-80.078,-388.672,32.227,29.785,25.391
1642302660.600,-14.648,-583.496,33.203,15.625,8.301
1642302660.604,121.582,-277.344,34.180,24.902,16.113
1642302660.608,90.820,-7.324,30.762,35.645,32.227
1642302660.612,-49.805,-183.105,33.691,32.715,22.461
1642302660.616,-48.340,-196.289,35.156,29.297,28.320
1642302660.620,88.867,-104.492,31.738,19.531,41.016
1642302660.624,109.863,-68.359,31.738,35.156,68.848
1642302660.628,-22.949,-256.836,33.691,41.992,28.809
1642302660.632,-61.523,-372.559,36.133,41.016,-14.160
1642302660.636,66.406,-117.188,30.273,34.180,29.785
1642302660.640,127.930,-125.488,26.367,14.648,53.711
1642302660.644,27.832,-442.871,31.250,18.555,60.059
1642302660.647,-56.152,-491.699,30.273,33.691,55.176
1642302660.651,21.484,-88.867,27.832,27.344,58.105
1642302660.655,127.441,3.906,26.367,30.762,65.918
1642302660.659,62.500,-119.141,22.461,28.320,61.523
1642302660.663,-62.012,-141.113,24.902,42.969,47.363
1642302660.664,-14.648,-67.871,25.879,56.152,50.781
1642302660.668,115.234,-117.188,23.926,36.621,41.016
1642302660.672,90.820,-153.809,24.414,33.691,53.711
1642302660.676,-41.016,-95.703,22.949,41.992,77.637
1642302660.680,-43.945,-220.215,26.855,40.527,56.641
1642302660.684,91.797,-341.797,30.273,34.180,42.480
1642302660.688,117.676,-617.676,31.738,32.715,28.809
1642302660.691,-19.531,-447.754,36.621,36.621,62.012
1642302660.695,-76.172,-103.516,36.621,27.832,58.105
1642302660.699,35.645,-163.574,34.668,25.391,48.340
1642302660.703,106.445,-118.164,36.621,52.246,63.477
1642302660.707,7.812,-73.730,34.180,52.246,40.527
1642302660.724,-82.520,-73.242,29.785,34.668,68.359
1642302660.728,1.953,-122.070,33.203,17.090,83.008
1642302660.732,123.535,-147.949,33.203,11.719,45.410
1642302660.736,73.242,-35.645,30.273,20.020,62.500
1642302660.740,-53.711,-131.836,28.809,27.832,62.012
1642302660.744,-20.020,-503.418,25.879,18.066,31.738
1642302660.748,113.770,-538.574,27.344,10.254,31.250
1642302660.751,102.051,-230.469,28.320,27.344,39.062
1642302660.755,-35.156,-99.121,23.926,45.410,54.688
1642302660.759,-52.734,-286.621,27.832,45.410,62.500
1642302660.763,75.684,-252.930,28.320,36.621,56.152
1642302660.767,116.211,18.066,27.832,57.129,70.312
1642302660.769,-6.348,-74.707,34.668,72.266,66.406
1642302660.773,-70.801,-233.398,36.133,52.734,39.062
1642302660.777,31.738,-132.324,38.574,36.133,49.805
1642302660.781,122.070,12.695,40.039,38.574,80.566
1642302660.785,38.574,-132.324,39.551,38.574,55.176
1642302660.789,-77.148,-348.633,38.574,47.363,41.992
1642302660.793,-6.348,-349.609,34.668,34.668,37.598
1642302660.796,117.676,-107.910,33.203,28.809,49.316
1642302660.800,69.336,-203.125,30.762,34.668,23.438
1642302660.804,-61.035,-609.863,35.645,35.645,-8.301
1642302660.808,-43.457,-342.285,41.016,35.645,27.832
1642302660.812,89.355,31.250,29.785,31.250,60.059
1642302660.815,95.215,-141.602,20.996,29.297,49.805
1642302660.819,-26.367,-291.992,25.391,36.621,22.949
1642302660.823,-54.688,-133.301,29.297,52.734,28.320
1642302660.827,60.059,-16.602,23.926,50.781,60.059
1642302660.831,120.117,-34.180,17.578,33.691,71.289
1642302660.835,5.371,-271.973,18.066,27.344,15.625
1642302660.839,-78.125,-387.207,24.414,37.109,5.371
1642302660.842,16.113,-242.676,28.809,23.926,29.297
1642302660.846,117.188,-384.766,28.320,18.555,24.414
1642302660.850,48.828,-472.656,28.320,26.855,14.160
1642302660.854,-75.195,-190.918,31.738,35.645,7.812
1642302660.858,-30.762,-117.676,26.855,32.227,41.016
1642302660.860,95.703,-218.262,23.926,23.438,44.922
1642302660.864,66.895,-204.590,23.438,40.039,50.781
1642302660.868,-75.684,-51.758,23.438,69.336,72.266
1642302660.872,-79.102,-186.035,28.320,51.270,45.410
1642302660.876,73.730,-337.402,28.320,16.602,21.484
1642302660.880,103.516,-229.004,25.879,19.531,58.594
1642302660.884,-36.133,-220.703,28.809,31.738,65.430
1642302660.887,-87.891,-382.324,32.227,31.738,11.230
1642302660.891,34.668,-511.719,30.762,21.973,20.020
1642302660.895,116.699,-191.895,25.879,29.785,60.059
1642302660.899,14.648,-5.371,28.809,39.062,59.082
1642302660.903,-94.238,-178.711,33.691,37.598,35.645
1642302660.904,-12.207,-175.293,32.227,27.344,34.180
1642302660.908,109.863,-23.438,29.785,20.996,46.387
1642302660.912,44.434,-43.945,31.250,20.020,34.180
1642302660.916,-83.008,-236.328,34.180,41.016,22.461
1642302660.920,-41.504,-204.102,36.621,34.668,50.781
1642302660.924,92.773,-143.555,35.156,2.441,53.223
1642302660.928,90.820,-210.449,31.738,4.883,38.574
1642302660.931,-51.270,-474.121,28.320,11.230,26.855
1642302660.935,-67.871,-598.633,32.715,4.395,33.691
1642302660.939,76.172,-137.207,33.203,2.930,53.223
1642302660.943,117.188,-90.820,27.344,10.742,25.391
1642302660.947,0.488,-249.023,27.344,21.973,7.324
1642302660.949,-60.059,-122.070,30.762,25.879,33.691
1642302660.953,40.527,-1.465,31.738,14.160,51.270
1642302660.957,124.023,-54.688,28.320,29.297,37.598
1642302660.961,25.391,-143.066,29.297,33.203,31.738
1642302660.965,-79.590,-130.859,25.879,33.203,20.020
1642302660.969,3.418,-261.719,24.414,17.090,-7.324
1642302660.973,116.211,-321.289,26.367,-0.977,20.996
1642302660.976,61.035,-539.062,25.879,11.719,37.109
1642302660.980,-73.242,-473.145,31.738,22.949,4.395
1642302660.984,-57.617,-111.328,29.785,22.949,5.859
1642302660.988,86.914,-111.328,25.879,16.113,19.531
1642302660.992,94.238,-93.750,28.809,20.508,32.227
1642302660.995,-36.621,13.184,29.785,32.715,61.035
1642302660.999,-63.477,-14.648,28.320,28.320,53.223
1642302661.003,59.082,-93.750,35.156,20.996,43.457
1642302661.007,118.164,-70.312,34.180,16.113,46.387
1642302661.011,-4.883,-98.633,31.250,18.555,13.672
1642302661.015,-83.008,-205.078,33.203,31.738,30.762
1642302661.019,25.879,-479.492,34.668,20.020,25.879
1642302661.022,120.605,-488.770,40.039,23.438,1.465
1642302661.026,47.852,-54.199,40.039,17.578,50.293
1642302661.030,-68.359,-152.344,37.109,13.672,39.062
1642302661.034,-26.367,-327.637,35.645,14.648,20.508
1642302661.038,104.980,-96.191,32.715,8.301,48.340
1642302661.070,75.684,5.859,30.762,24.902,41.504
1642302661.074,-60.547,-119.141,36.133,38.086,54.199
1642302661.078,-46.875,-258.301,37.109,14.648,47.363
1642302661.082,89.844,-106.934,32.227,8.301,50.293
1642302661.086,103.516,4.883,36.621,23.438,54.688
1642302661.090,-29.785,-293.457,34.180,22.461,17.090
1642302661.094,-82.520,-629.883,27.344,-3.418,44.922
1642302661.097,38.574,-365.723,31.250,-22.949,60.547
1642302661.101,120.117,-59.570,28.809,-2.441,31.738
1642302661.105,10.742,-174.805,28.320,8.301,34.180
1642302661.109,-83.496,-196.289,32.715,11.230,56.152
1642302661.113,9.766,-133.789,37.109,-6.836,38.574
1642302661.100,112.305,-111.328,40.527,-8.301,58.594
1642302661.104,39.551,-232.422,32.715,6.836,78.613
1642302661.108,-81.543,-328.613,28.320,11.719,41.504
1642302661.112,-26.855,-193.359,30.762,14.648,34.180
1642302661.116,104.492,-99.121,29.297,-3.418,55.176
1642302661.120,78.613,-201.660,33.203,-2.930,65.918
1642302661.124,-52.246,-346.191,33.691,26.367,67.383
1642302661.127,-45.898,-179.199,34.180,13.672,85.449
1642302661.131,93.262,-52.734,32.715,-10.254,93.750
1642302661.135,117.188,-173.828,26.367,-4.395,80.078
1642302661.139,-18.555,-217.773,25.879,9.277,57.129
1642302661.143,-77.148,-168.457,22.949,7.812,46.875
1642302661.145,40.527,-145.508,23.438,-8.301,61.035
1642302661.149,121.094,-417.480,30.273,-4.395,61.523
1642302661.153,28.809,-371.582,31.250,0.488,80.078
1642302661.157,-65.918,-118.164,29.297,9.766,103.027
1642302661.161,4.883,-268.066,29.785,1.465,66.406
1642302661.165,118.164,-318.359,30.762,-0.488,81.055
1642302661.169,62.012,-189.453,36.621,17.578,107.422
1642302661.172,-69.824,-90.332,35.645,17.090,77.637
1642302661.176,-30.762,-190.430,29.297,9.277,58.105
1642302661.180,112.793,-554.199,29.785,10.742,34.668
1642302661.184,102.051,-365.234,28.320,10.742,37.598
1642302661.188,-41.992,-56.152,24.902,26.367,40.527
1642302661.190,-58.105,-183.594,24.902,19.531,27.832
1642302661.194,77.637,-138.184,26.367,21.973,42.969
1642302661.198,125.000,40.527,29.785,49.805,76.172
1642302661.202,9.277,-28.809,32.227,34.668,48.828
1642302661.206,-65.918,-247.559,35.645,37.109,2.930
1642302661.210,37.598,-334.473,30.273,21.973,7.812
1642302661.214,144.043,-253.418,25.879,9.277,41.016
1642302661.217,58.594,-200.195,30.762,30.273,61.035
1642302661.221,-65.430,-421.875,28.320,36.621,63.477
1642302661.225,-2.441,-557.617,28.320,28.809,36.621
1642302661.229,122.559,-97.168,30.273,25.879,70.312
1642302661.233,79.590,9.766,28.320,36.621,76.172
1642302661.234,-53.711,-167.969,33.691,58.594,49.805
1642302661.238,-32.227,-80.078,40.039,48.340,68.848
1642302661.242,116.699,63.477,35.156,38.086,94.727
1642302661.246,121.582,-27.832,25.879,37.109,85.938
1642302661.250,-31.738,-204.590,25.391,41.504,50.293
1642302661.254,-68.848,-282.715,26.855,47.852,33.203
1642302661.258,62.500,-246.094,28.320,33.691,50.781
1642302661.261,129.395,-277.344,26.367,49.316,50.781
1642302661.265,14.160,-517.578,25.391,62.500,19.531
1642302661.269,-76.172,-357.910,27.832,54.688,46.387
1642302661.273,30.762,-26.367,32.227,40.527,75.684
1642302661.277,137.207,-141.113,33.203,40.527,53.711
1642302661.279,53.711,-242.676,26.855,55.664,47.852
1642302661.283,-64.453,-64.453,24.902,46.875,72.266
1642302661.287,-6.836,-51.270,27.344,34.180,71.777
1642302661.291,118.164,-79.102,27.832,41.504,68.848
1642302661.295,84.961,-62.012,30.762,48.340,77.148
1642302661.299,-46.387,-186.523,31.250,52.246,61.523
1642302661.303,-41.992,-275.391,36.133,43.457,63.965
1642302661.306,85.449,-425.293,41.016,29.785,68.359
1642302661.310,108.398,-432.617,38.574,38.086,49.316
1642302661.314,-22.949,-52.246,36.621,52.734,78.613
1642302661.318,-81.055,-43.457,34.180,46.875,81.543
1642302661.322,40.039,-94.727,27.832,17.090,87.891
1642302661.325,123.047,-76.660,29.297,36.133,87.891
1642302661.329,18.066,-39.551,30.762,48.828,69.336
1642302661.333,-72.754,-115.723,26.367,34.180,64.941
1642302661.337,1.465,-291.504,33.203,33.691,44.922
1642302661.341,102.051,-80.078,34.668,25.879,68.848
1642302661.345,50.781,-21.973,24.414,26.855,86.426
1642302661.349,-67.871,-312.012,21.973,29.785,41.016
1642302661.352,-30.762,-483.887,27.832,13.672,31.250
1642302661.356,104.004,-143.066,31.738,15.137,70.312
1642302661.360,89.844,64.453,29.785,19.043,49.316
1642302661.364,-49.805,-150.879,26.367,22.949,9.766
1642302661.368,-58.594,-210.938,28.809,32.227,0.977
1642302661.370,82.520,-6.836,31.250,32.715,33.691
1642302661.374,123.535,121.582,25.879,29.785,63.477
1642302661.378,-5.371,-142.578,25.391,22.461,6.836
1642302661.382,-70.801,-342.285,30.762,27.344,-31.738
1642302661.386,39.551,-136.230,31.738,36.133,-7.812
1642302661.390,124.023,-72.754,26.855,24.902,21.973
1642302661.394,23.438,-396.484,29.297,13.672,-2.930
1642302661.397,-85.449,-621.582,40.039,11.719,-47.852
1642302661.401,-8.789,-235.840,35.645,13.672,-25.879
1642302661.405,115.234,-9.766,29.785,22.461,-0.977
1642302661.409,70.801,-53.223,34.668,21.973,20.508
1642302661.413,-64.941,-98.633,36.621,19.043,-2.441
1642302661.414,-47.363,-70.801,35.156,4.395,-6.836
1642302661.418,88.867,-43.945,33.691,9.766,23.926
1642302661.422,99.609,-117.188,31.738,30.273,20.996
1642302661.426,-35.156,-71.777,29.785,21.484,31.250
1642302661.430,-70.801,-11.230,30.762,12.695,48.340
1642302661.434,59.570,-243.652,30.273,3.906,12.207
1642302661.438,114.258,-479.004,28.809,12.695,18.066
1642302661.441,4.395,-262.695,26.367,19.531,42.969
1642302661.445,-67.383,-28.809,22.461,12.695,48.340
1642302661.449,29.785,-195.312,22.461,11.719,56.152
1642302661.453,126.953,-378.906,25.879,15.137,56.152
1642302661.457,46.875,-120.117,28.809,13.672,80.566
1642302661.474,-69.824,-44.434,25.879,17.090,87.891
1642302661.478,-6.348,-151.855,27.344,12.695,89.844
1642302661.482,119.629,-139.160,34.180,21.973,84.473
1642302661.486,75.684,-34.180,34.180,26.367,99.121
1642302661.490,-61.523,-47.852,33.691,26.855,107.422
1642302661.494,-52.246,-282.227,32.227,24.414,71.777
1642302661.498,82.520,-340.820,32.715,19.531,70.801
1642302661.501,105.469,-100.098,36.621,33.203,98.145
1642302661.505,-27.344,-85.938,36.621,31.250,79.102
1642302661.509,-77.637,-537.598,33.691,25.879,23.926
1642302661.513,48.340,-545.410,33.203,14.160,31.250
1642302661.517,121.582,-33.203,34.180,27.832,69.824
1642302661.519,0.977,-32.715,30.762,41.504,56.641
1642302661.523,-96.191,-158.203,28.809,14.648,47.852
1642302661.527,5.859,-97.168,29.297,4.395,25.879
1642302661.531,112.305,-1.465,31.250,27.344,20.508
1642302661.535,31.250,-80.078,30.273,23.926,19.531
1642302661.539,-92.773,-265.625,25.391,7.324,20.996
1642302661.543,-43.945,-339.355,28.320,-4.395,-1.953
1642302661.546,93.750,-128.906,34.180,0.977,6.348
1642302661.550,76.172,-122.559,30.762,15.137,23.926
1642302661.554,-65.918,-510.742,30.273,20.508,-23.438
1642302661.558,-73.730,-308.105,34.180,28.809,-10.742
1642302661.562,67.871,-102.051,31.250,18.066,18.066
1642302661.564,110.352,-312.500,27.832,15.625,21.973
1642302661.568,-24.902,-271.484,30.273,23.926,33.691
1642302661.572,-91.309,-61.523,31.250,22.949,54.199
1642302661.576,22.949,-17.578,30.762,11.230,62.500
1642302661.580,107.910,-108.398,30.762,8.301,56.641
1642302661.584,14.160,-229.492,31.250,15.625,60.547
1642302661.588,-84.961,-340.332,31.250,15.625,37.598
1642302661.591,2.441,-205.078,29.785,13.184,53.223
1642302661.595,123.047,-323.242,29.297,21.484,54.199
1642302661.599,52.734,-419.434,32.227,34.668,41.992
1642302661.603,-84.473,-71.777,31.250,30.273,61.035
1642302661.607,-48.828,-76.172,27.832,4.883,53.223
1642302661.610,94.238,-133.789,27.832,6.348,48.828
1642302661.614,97.168,-13.184,30.762,18.555,58.105
1642302661.618,-46.387,-97.168,32.715,21.484,36.621
1642302661.622,-71.777,-354.004,34.668,30.273,5.859
1642302661.626,70.312,-325.195,32.227,29.785,12.207
1642302661.630,126.953,-180.176,26.367,34.668,33.691
1642302661.634,5.371,-160.645,32.227,53.711,40.527
1642302661.637,-76.172,-298.340,32.715,46.387,-4.395
1642302661.641,27.344,-505.371,28.320,28.809,-30.762
1642302661.645,127.930,-135.742,30.762,40.039,39.551
1642302661.649,42.480,72.266,30.762,46.387,38.574
1642302661.653,-72.266,-123.535,30.273,49.316,17.090
1642302661.655,-6.348,-120.117,28.320,39.551,32.227
1642302661.659,125.488,41.992,27.832,44.434,50.293
1642302661.663,83.984,15.625,27.344,48.828,37.598
1642302661.667,-48.340,-194.824,26.367,46.387,0.977
1642302661.671,-21.484,-205.078,27.832,59.082,16.602
1642302661.675,110.352,-191.406,29.785,49.316,32.715
1642302661.679,112.793,-209.961,30.762,46.387,44.922
1642302661.682,-28.320,-446.777,27.344,64.941,44.434
1642302661.686,-69.824,-581.543,28.809,65.918,45.898
1642302661.690,62.500,-127.930,31.250,41.504,74.219
1642302661.694,129.883,33.203,29.297,26.855,78.125
1642302661.698,29.785,-109.375,33.203,41.016,58.594
1642302661.700,-53.223,-92.285,35.645,47.852,64.453
1642302661.704,33.691,11.230,34.180,39.062,81.055
1642302661.708,141.113,-14.648,34.180,35.645,85.938
1642302661.712,70.801,-109.375,35.156,31.250,73.242
1642302661.716,-52.246,-127.930,33.203,37.598,47.852
1642302661.720,-7.324,-179.199,31.738,33.203,62.500
1642302661.724,120.605,-292.969,27.832,29.785,62.012
1642302661.727,90.820,-440.918,25.391,22.461,40.039
1642302661.731,-44.922,-351.562,29.297,8.301,42.969
1642302661.735,-38.574,-82.031,33.203,11.719,64.453
1642302661.739,97.656,-189.941,38.086,3.418,27.832
1642302661.743,121.094,-277.344,37.109,15.625,13.184
1642302661.744,-11.719,-57.617,34.180,20.020,46.875
1642302661.748,-63.477,-70.801,34.668,-6.348,36.621
1642302661.752,77.148,-126.465,36.133,0.000,41.992
1642302661.756,155.273,-1.953,32.227,24.414,83.984
1642302661.760,17.090,20.020,26.367,23.438,65.918
1642302661.764,-90.332,-224.121,27.344,10.742,20.020
1642302661.768,11.230,-547.852,30.762,-11.230,-12.695
1642302661.771,131.836,-519.043,31.250,-4.883,-26.855
1642302661.775,62.500,-95.703,31.250,13.184,10.254
1642302661.779,-68.848,-97.168,29.785,19.531,5.371
1642302661.783,-24.414,-224.609,24.902,5.859,-10.742
1642302661.787,113.281,-165.527,25.391,-0.977,6.836
1642302661.797,94.727,-124.512,30.762,15.625,-1.953
1642302661.801,-43.457,-172.852,36.621,26.367,-21.973
1642302661.805,-58.105,-340.332,35.156,20.996,-41.504
1642302661.809,72.754,-174.805,31.250,3.906,-13.184
1642302661.813,115.723,-3.418,32.715,7.812,2.441
1642302661.817,-3.906,-225.586,29.785,31.250,3.906
1642302661.821,-68.848,-580.566,27.344,20.020,-13.184
1642302661.824,36.621,-360.840,33.203,13.672,-11.230
1642302661.828,125.488,-30.273,36.133,21.484,23.438
1642302661.832,34.180,-169.922,30.273,8.789,20.508
1642302661.836,-84.961,-230.469,30.273,21.484,33.691
1642302661.840,-4.883,-136.230,34.180,17.578,38.574
1642302661.865,134.277,6.348,26.855,17.090,87.402
1642302661.869,80.078,-38.086,21.484,23.438,109.375
1642302661.873,-60.547,-250.977,28.809,37.598,78.125
1642302661.877,-31.738,-223.145,31.250,29.785,67.871
1642302661.881,109.863,-93.262,27.832,1.953,58.594
1642302661.885,106.934,-341.309,33.203,20.996,63.965
1642302661.889,-37.598,-694.336,41.016,21.484,37.109
1642302661.892,-62.988,-375.488,39.551,7.324,39.062
1642302661.896,75.684,-54.688,31.738,13.672,87.402
1642302661.900,137.695,-66.406,26.855,15.625,98.633
1642302661.904,11.230,-85.449,24.902,13.672,74.219
1642302661.908,-84.961,-101.074,25.879,5.371,44.434
1642302661.894,15.625,-154.297,29.297,8.789,30.762
1642302661.898,118.652,-130.859,36.133,23.438,54.688
1642302661.902,30.273,-120.117,37.598,7.324,27.832
1642302661.906,-92.285,-119.629,34.668,5.859,21.484
1642302661.910,-18.066,-197.754,33.691,-6.348,25.879
1642302661.914,104.492,-304.199,37.109,-13.184,20.996
1642302661.918,52.246,-251.465,43.457,7.324,45.898
1642302661.921,-72.754,-307.129,44.434,7.324,29.785
1642302661.925,-60.059,-391.602,46.387,11.230,32.715
1642302661.929,68.848,-310.059,41.016,4.883,29.785
1642302661.933,86.426,-133.301,33.203,-8.789,27.832
1642302661.937,-56.152,-82.031,38.086,-6.836,41.504
1642302661.939,-105.469,-375.488,41.016,-16.602,7.324
1642302661.943,17.578,-776.855,41.992,-26.855,-25.879
1642302661.947,79.590,-455.078,41.992,-18.066,19.043
1642302661.951,-40.039,-176.270,36.133,-29.785,46.387
1642302661.955,-143.066,-325.195,34.180,-41.016,41.504
1642302661.959,-52.734,-504.883,38.574,-51.270,12.695
1642302661.963,51.758,-500.488,42.480,-60.059,34.668
1642302661.966,-39.551,-358.398,39.551,-79.590,79.102
1642302661.970,-187.012,-670.410,30.762,-96.191,34.180
1642302661.974,-152.344,-918.945,28.320,-107.910,-1.953
1642302661.978,-26.855,-492.188,30.762,-117.676,43.945
1642302661.982,-62.012,-416.504,28.809,-123.535,49.316
1642302661.984,-213.379,-582.520,31.250,-134.766,43.945
1642302661.988,-226.074,-545.410,32.227,-144.043,44.922
1642302661.992,-92.285,-437.988,38.086,-125.000,47.852
1642302661.996,-55.664,-436.035,33.203,-102.051,65.430
1642302662.000,-191.406,-602.051,23.926,-126.465,49.316
1642302662.004,-251.465,-681.152,26.855,-147.949,36.133
1642302662.008,-111.816,-559.082,30.273,-143.066,57.129
1642302662.011,-20.508,-487.793,24.902,-124.023,63.965
1642302662.015,-123.535,-727.539,26.855,-114.746,17.090
1642302662.019,-219.238,-562.500,32.715,-99.121,11.719
1642302662.023,-128.418,-229.004,28.809,-94.238,27.832
1642302662.027,-2.441,-326.172,30.762,-90.332,29.297
1642302662.029,-51.270,-293.457,36.621,-60.059,38.574
1642302662.033,-165.039,11.230,33.691,-27.344,63.477
1642302662.037,-114.746,50.781,32.715,-25.391,45.410
1642302662.041,40.039,74.219,35.645,-26.367,64.453
1642302662.045,53.711,183.105,31.738,-11.719,97.168
1642302662.049,-72.754,48.340,28.809,7.812,74.219
1642302662.053,-83.984,31.250,30.762,15.137,69.824
1642302662.056,55.176,-97.656,29.297,11.230,59.082
1642302662.060,119.629,-159.180,29.785,15.625,75.195
1642302662.064,15.625,209.473,32.227,43.945,106.934
1642302662.068,-63.965,182.129,29.297,61.035,95.215
1642302662.072,46.387,79.102,25.879,35.645,91.797
1642302662.075,160.156,205.566,24.414,26.367,118.164
1642302662.079,74.707,270.508,21.484,22.949,125.000
1642302662.083,-43.945,13.672,21.484,39.551,92.285
1642302662.087,30.762,-175.781,20.996,45.410,50.781
1642302662.091,172.852,102.539,17.578,46.875,76.172
1642302662.095,134.277,147.949,16.602,60.547,79.590
1642302662.099,-1.953,-115.723,19.531,65.430,22.461
1642302662.102,16.602,-335.938,21.973,62.988,-24.414
1642302662.106,152.832,-50.781,20.020,62.012,-20.020
1642302662.110,166.992,236.816,20.508,85.449,-24.414
1642302662.114,33.691,112.305,24.414,105.469,-42.480
1642302662.118,0.000,8.789,23.926,92.285,-87.402
1642302662.119,135.254,80.078,22.461,83.984,-124.512
1642302662.123,197.754,186.035,20.508,104.980,-105.469
1642302662.127,72.754,10.742,19.531,125.977,-147.949
1642302662.131,-14.160,-72.266,24.902,127.930,-167.480
1642302662.135,94.238,13.672,25.391,105.469,-136.719
1642302662.139,202.148,-29.785,29.297,120.605,-128.418
1642302662.143,111.328,-323.730,31.250,154.785,-153.809
1642302662.146,-19.043,-528.320,22.949,142.578,-162.109
1642302662.150,36.621,-131.836,20.508,112.305,-125.000
1642302662.154,181.152,93.262,21.973,109.863,-95.703
1642302662.158,149.902,-7.324,21.484,120.605,-91.309
1642302662.162,-6.348,-24.414,22.949,130.859,-76.172
1642302662.180,-7.324,14.648,25.391,125.000,-54.199
1642302662.184,137.695,9.766,24.902,114.258,-17.578
1642302662.188,168.457,-34.180,25.391,118.164,16.113
1642302662.192,38.574,-41.504,25.879,121.582,25.391
1642302662.196,-15.137,3.418,23.926,106.445,60.547
1642302662.200,98.633,-156.738,25.391,79.590,82.520
1642302662.204,172.852,-397.461,29.297,80.566,98.633
1642302662.207,71.777,-334.961,28.809,82.031,94.727
1642302662.211,-28.809,-179.688,26.855,74.707,112.793
1642302662.215,57.617,-143.555,28.809,63.477,170.410
1642302662.219,173.828,-262.695,28.809,56.152,158.203
1642302662.223,110.840,-102.539,26.855,60.547,164.551
1642302662.225,-23.438,11.230,28.809,62.500,194.336
1642302662.229,10.742,-120.605,31.250,58.594,176.758
1642302662.233,152.344,-23.438,30.762,60.547,213.867
1642302662.237,141.113,92.285,33.203,73.242,221.680
1642302662.241,0.000,1.465,39.062,91.309,186.035
1642302662.245,-7.812,-222.168,38.086,80.566,154.785
1642302662.249,132.812,-339.844,39.062,74.707,117.188
1642302662.252,172.363,-138.184,41.016,78.613,116.211
1642302662.256,38.574,-1.465,33.691,69.336,119.629
1642302662.260,-37.109,-292.480,34.180,67.383,116.211
1642302662.264,74.707,-485.352,39.551,50.293,80.078
1642302662.268,166.016,-153.809,35.156,54.199,80.566
1642302662.269,74.707,-25.879,31.250,65.430,92.773
1642302662.273,-38.086,-235.352,33.691,64.453,54.688
1642302662.277,31.250,-116.211,38.086,61.035,71.289
1642302662.281,162.598,133.789,41.016,49.316,105.469
1642302662.285,114.258,61.035,37.598,38.086,94.238
1642302662.289,-30.762,-169.922,36.133,41.016,73.730
1642302662.293,-10.254,-230.957,38.574,31.738,62.988
1642302662.296,131.836,-15.625,40.039,17.090,67.383
1642302662.300,129.883,-86.914,38.574,11.719,50.293
1642302662.304,-6.348,-443.848,34.180,15.137,28.809
1642302662.308,-31.250,-242.676,37.598,25.391,48.340
1642302662.312,98.633,-21.484,36.133,20.508,51.270
1642302662.316,159.668,-77.148,30.762,16.113,52.734
1642302662.320,39.062,-144.531,31.250,9.766,80.078
1642302662.324,-49.805,-197.266,32.715,5.859,70.801
1642302662.328,59.082,-52.734,30.273,5.371,71.777
1642302662.332,152.344,-155.273,30.762,2.441,66.406
1642302662.336,53.223,-345.215,37.598,7.812,47.852
1642302662.340,-60.547,-326.660,36.133,20.508,50.781
1642302662.343,4.883,-212.891,35.645,25.391,54.688
1642302662.347,133.301,-319.824,37.109,20.996,59.570
1642302662.351,96.680,-387.207,35.156,21.973,60.547
1642302662.355,-44.434,-59.570,32.715,34.180,71.777
1642302662.359,-37.109,-103.516,35.645,28.809,46.875
1642302662.360,101.562,-150.879,33.691,30.762,48.340
1642302662.364,122.070,16.113,30.273,40.039,91.797
1642302662.368,-13.184,58.105,31.738,61.035,94.238
1642302662.372,-59.082,-103.027,33.691,55.664,62.012
1642302662.376,72.754,-231.445,34.180,17.090,49.316
1642302662.380,143.066,-197.266,37.109,30.273,64.941
1642302662.384,26.367,-188.477,37.598,40.527,64.453
1642302662.387,-72.754,-292.480,35.156,30.762,49.316
1642302662.391,14.648,-619.629,29.785,16.602,12.695
1642302662.395,128.418,-438.477,28.809,13.184,16.113
1642302662.399,53.223,-17.090,28.809,29.297,45.410
1642302662.403,-82.520,-168.457,23.926,36.133,22.949
1642302662.404,-29.785,-233.398,27.344,20.508,10.742
1642302662.408,110.840,-19.531,32.715,19.043,54.688
1642302662.412,83.496,44.922,32.715,22.949,77.148
1642302662.416,-50.293,-138.672,30.762,12.207,37.598
1642302662.420,-47.363,-251.465,30.762,11.719,25.391
1642302662.424,78.613,-254.395,32.227,15.137,32.227
1642302662.428,109.375,-187.012,34.180,10.254,56.152
1642302662.431,-15.625,-428.223,35.645,-0.488,42.480
1642302662.435,-72.266,-609.863,35.645,-5.371,18.066
1642302662.439,46.387,-165.039,29.785,-10.742,42.969
1642302662.443,125.488,43.945,29.297,-3.906,53.711
1642302662.447,20.996,-65.918,32.715,20.996,44.434
1642302662.449,-87.402,-56.152,26.367,21.973,39.551
1642302662.453,-5.371,21.484,22.461,-11.719,33.691
1642302662.457,119.629,-20.020,24.414,-22.949,23.926
1642302662.461,55.664,-80.566,26.367,-16.113,23.438
1642302662.465,-77.148,-111.816,31.250,-8.301,-9.277
1642302662.469,-30.762,-197.266,34.180,-18.066,-25.879
1642302662.473,103.516,-277.344,36.621,-7.324,-19.043
1642302662.476,86.914,-464.355,38.574,-1.953,-50.293
1642302662.480,-53.711,-300.781,40.039,0.488,-53.223
1642302662.484,-74.707,-24.902,38.574,10.742,-27.344
1642302662.488,67.383,-133.789,31.250,-9.766,-24.414
1642302662.492,115.723,-140.625,31.250,-3.418,-25.879
1642302662.495,-14.648,-36.621,37.109,7.812,-38.086
1642302662.499,-78.125,-123.535,39.062,9.277,-63.965
1642302662.503,31.738,-236.328,37.598,5.371,-60.547
1642302662.507,117.188,-116.699,31.250,9.277,-7.324
1642302662.511,33.691,-7.812,34.180,19.531,9.277
1642302662.515,-85.938,-222.168,41.504,14.160,-42.969
1642302662.519,-17.578,-536.133,36.133,10.254,-56.152
1642302662.522,115.723,-513.184,36.621,17.090,-32.227
1642302662.526,62.012,-86.426,38.574,2.441,9.277
1642302662.530,-75.195,-46.875,37.598,9.277,23.926
1642302662.534,-54.688,-150.391,38.574,25.879,20.996
1642302662.538,93.262,-77.148,37.109,17.578,22.949
1642302662.540,120.117,72.266,37.598,12.695,56.152
1642302662.544,-26.855,-97.656,37.598,12.695,50.781
1642302662.548,-82.520,-296.875,31.738,12.207,20.996
1642302662.552,51.270,-137.695,31.250,5.371,12.207
1642302662.556,118.164,2.930,29.785,13.184,24.414
1642302662.560,-0.977,-194.824,27.832,16.113,42.480
1642302662.564,-90.332,-446.777,28.320,9.277,-4.883
1642302662.567,25.879,-250.977,24.414,19.043,-25.879
1642302662.571,140.137,46.875,25.391,30.762,40.039
1642302662.575,43.945,-117.188,31.250,26.367,41.016
1642302662.579,-81.543,-458.984,34.668,17.578,-9.277
1642302662.583,-21.484,-282.227,32.227,16.602,-17.578
1642302662.600,118.164,-102.051,28.809,32.715,-6.836
1642302662.604,92.773,-127.441,30.762,37.598,22.461
1642302662.608,-45.898,-157.715,29.785,33.203,32.227
1642302662.612,-45.410,-123.047,24.902,8.789,26.367
1642302662.616,87.402,-124.023,25.879,1.953,33.203
1642302662.620,112.793,-340.820,24.902,26.367,47.363
1642302662.624,-7.324,-438.477,26.855,20.996,32.227
1642302662.627,-50.781,-179.688,30.273,20.996,28.809
1642302662.631,55.664,-13.672,27.832,13.672,57.129
1642302662.635,135.254,-285.645,25.879,4.883,32.227
1642302662.639,38.574,-479.980,25.879,25.391,-8.301
1642302662.643,-73.730,-197.754,27.344,42.969,13.184
1642302662.645,12.695,-95.215,25.391,31.738,34.668
1642302662.649,135.742,-128.906,27.344,12.695,29.297
1642302662.653,63.965,-48.828,31.250,8.301,34.180
1642302662.657,-70.312,-85.938,26.367,18.555,-2.441
1642302662.661,-32.715,-252.930,30.273,11.719,-49.805
1642302662.665,111.328,-295.898,36.621,12.207,-21.484
1642302662.669,104.004,-257.812,36.621,14.160,-3.418
1642302662.672,-42.969,-214.355,38.086,13.184,-5.371
1642302662.676,-53.711,-219.238,38.574,26.855,-0.977
1642302662.680,84.473,-573.730,40.039,22.949,-38.086
1642302662.684,117.676,-407.227,40.039,17.090,-20.508
1642302662.688,-13.672,-34.668,41.992,23.926,10.742
1642302662.690,-67.383,-195.312,46.875,24.902,-5.371
1642302662.694,53.223,-192.871,43.945,4.883,1.465
1642302662.698,128.418,10.254,41.016,0.488,47.363
1642302662.702,25.879,4.395,41.992,15.625,58.594
1642302662.706,-81.055,-181.152,38.086,12.695,34.180
1642302662.710,-10.254,-335.449,34.180,-2.930,20.508
1642302662.714,104.980,-283.691,33.691,7.324,50.781
1642302662.717,67.871,-103.027,31.250,17.578,59.082
1642302662.721,-57.617,-400.879,35.156,32.227,25.879
1642302662.725,-40.039,-541.992,37.598,22.461,25.879
1642302662.729,102.051,-162.109,35.156,6.348,51.758
1642302662.733,105.957,-86.914,35.156,25.879,45.898
1642302662.735,-41.992,-237.305,34.180,25.391,21.484
1642302662.739,-72.266,-213.867,33.691,32.227,5.371
1642302662.743,68.359,-28.809,29.785,25.879,7.324
1642302662.747,125.977,-40.039,23.438,4.395,9.766
1642302662.751,-1.465,-130.371,27.832,23.926,-10.254
1642302662.755,-84.473,-275.391,35.156,40.039,-63.477
1642302662.759,27.344,-289.062,31.250,22.461,-68.359
1642302662.762,132.324,-276.855,28.320,19.531,-56.641
1642302662.766,44.434,-500.000,33.203,15.625,-96.680
1642302662.770,-74.219,-357.422,31.250,17.090,-114.258
1642302662.774,-15.625,-106.445,24.414,16.113,-104.980
1642302662.778,114.258,-136.230,23.926,18.555,-84.473
1642302662.780,77.637,-130.371,23.438,17.578,-67.383
1642302662.784,-49.805,-181.641,26.367,15.137,-100.586
1642302662.788,-31.738,-153.320,32.227,26.367,-96.191
1642302662.792,92.773,-154.297,29.297,19.531,-84.961
1642302662.796,106.445,-139.160,27.832,20.996,-76.660
1642302662.800,-24.902,-177.246,30.273,33.691,-81.543
1642302662.804,-74.707,-249.023,33.203,41.016,-106.934
1642302662.807,48.340,-446.289,38.086,23.438,-158.203
1642302662.811,128.906,-589.844,37.598,10.254,-164.062
1642302662.815,29.785,-208.496,33.691,27.832,-133.301
1642302662.819,-68.359,-114.258,27.832,30.273,-137.695
1642302662.823,17.578,-218.262,21.973,9.766,-155.273
1642302662.824,130.371,-93.262,23.926,18.555,-145.996
