timestamps,TP9,AF7,AF8,TP10,Right AUX
1644359649.262,-33.203,32.715,32.227,-14.160,-83.984
1644359649.266,-62.500,18.555,29.297,-24.902,-74.219
1644359649.270,65.430,16.113,27.832,6.348,-102.539
1644359649.274,105.469,21.484,22.949,41.504,-106.445
1644359649.278,-9.766,23.926,29.297,12.695,-112.305
1644359649.282,-95.215,28.320,34.180,1.953,-92.285
1644359649.286,20.508,25.879,36.133,17.090,-94.238
1644359649.289,118.164,17.090,32.715,49.316,-129.883
1644359649.293,47.852,21.973,26.367,19.043,-147.949
1644359649.297,-78.613,27.832,32.227,-11.719,-102.539
1644359649.301,-26.367,26.855,39.551,-0.488,-83.008
1644359649.305,104.004,21.484,44.922,50.293,-87.891
1644359649.305,104.004,21.484,44.922,50.293,-87.891
1644359649.311,92.285,14.160,38.086,47.852,-120.117
1644359649.315,-46.387,22.949,29.785,18.066,-100.586
1644359649.319,-52.734,26.855,33.203,19.043,-71.777
1644359649.323,85.449,25.391,31.250,42.969,-73.730
1644359649.327,110.840,24.414,31.738,44.922,-87.402
1644359649.331,-14.648,23.926,39.062,13.672,-121.094
1644359649.335,-70.801,29.297,40.527,6.836,-67.383
1644359649.338,54.199,28.809,38.086,20.996,-85.938
1644359649.342,111.816,25.879,39.551,53.223,-123.535
1644359649.346,14.160,28.320,39.062,22.949,-98.633
1644359649.350,-80.566,24.902,20.996,0.488,-36.621
1644359649.354,14.648,20.020,18.066,8.301,-72.266
1644359649.368,110.352,22.949,35.156,50.293,-102.051
1644359649.372,54.199,24.902,41.016,24.414,-75.195
1644359649.376,-69.336,24.414,35.156,-7.812,-53.711
1644359649.380,-24.902,25.391,27.344,-4.395,-92.773
1644359649.384,110.840,28.809,29.297,38.086,-121.582
1644359649.388,89.844,30.273,35.645,38.086,-127.441
1644359649.392,-49.316,29.297,40.039,8.789,-89.844
1644359649.395,-60.547,34.180,29.785,20.020,-41.992
1644359649.399,74.219,23.438,21.973,52.734,-111.816
1644359649.403,103.516,11.230,33.691,61.035,-128.906
1644359649.407,-9.766,20.020,37.598,4.883,-94.238
1644359649.411,-74.219,26.367,36.133,-10.742,-62.988
1644359649.413,51.758,27.344,34.180,19.043,-59.570
1644359649.417,132.324,27.344,30.762,56.641,-77.148
1644359649.421,44.922,28.320,32.715,26.367,-104.492
1644359649.425,-76.172,25.879,38.086,6.348,-60.059
1644359649.429,1.953,28.809,36.133,19.043,-45.410
1644359649.433,120.605,31.250,27.344,57.617,-68.359
1644359649.437,72.266,21.973,16.113,35.156,-97.656
1644359649.440,-61.035,19.531,20.508,-3.418,-72.754
1644359649.444,-43.457,21.973,25.879,-11.230,-53.223
1644359649.448,78.613,21.973,22.949,28.809,-76.660
1644359649.452,83.984,25.879,27.344,37.109,-95.703
1644359649.456,-44.922,29.297,35.156,-4.883,-109.375
1644359649.457,-78.613,29.785,43.457,-24.902,-77.637
1644359649.461,61.035,25.879,41.016,-3.418,-71.777
1644359649.465,104.004,20.996,28.320,25.879,-67.383
1644359649.469,-4.395,31.250,20.996,-15.625,-77.148
1644359649.473,-80.566,36.621,22.461,-22.949,-41.992
1644359649.477,24.414,28.809,19.043,12.695,-54.688
1644359649.481,112.793,29.785,21.973,46.875,-104.980
1644359649.484,40.527,25.879,30.273,9.766,-108.887
1644359649.488,-78.125,19.043,36.133,-4.883,-45.898
1644359649.492,-22.949,27.344,33.691,10.742,-27.344
1644359649.496,97.656,32.227,24.414,45.410,-73.242
1644359649.500,77.148,27.832,28.320,27.832,-140.625
1644359649.532,-54.688,22.949,34.180,1.953,-83.984
1644359649.536,-40.039,20.508,34.668,7.324,-36.621
1644359649.540,95.215,21.484,36.621,41.992,-74.219
1644359649.544,102.051,21.973,33.691,49.805,-86.914
1644359649.548,-25.391,26.367,32.227,4.395,-63.477
1644359649.552,-65.918,28.320,29.785,-0.977,-30.762
1644359649.556,64.453,26.367,28.809,18.066,-77.637
1644359649.559,108.887,25.879,31.738,38.574,-92.773
1644359649.563,-1.465,27.344,33.203,15.137,-62.012
1644359649.567,-83.496,22.461,33.691,0.000,-17.578
1644359649.571,20.996,21.973,35.645,3.418,-56.641
1644359649.575,115.234,31.250,29.297,44.434,-76.660
1644359649.537,54.199,35.156,20.508,22.949,-78.125
1644359649.541,-62.500,29.297,25.391,0.488,-40.039
1644359649.545,-9.766,26.367,30.273,0.000,-47.852
1644359649.549,110.352,28.809,29.297,28.320,-92.773
1644359649.553,92.773,25.879,27.832,26.855,-89.844
1644359649.557,-47.852,22.461,24.902,-9.277,-47.852
1644359649.561,-60.059,19.531,23.926,-9.277,-42.480
1644359649.564,83.984,18.555,24.414,36.133,-91.797
1644359649.568,108.887,27.832,20.996,42.969,-108.887
1644359649.572,-13.672,37.109,27.344,-7.324,-97.168
1644359649.576,-69.336,29.297,34.668,-10.254,-58.594
1644359649.580,50.781,30.762,31.250,15.137,-48.340
1644359649.578,112.793,37.598,25.879,43.457,-71.289
1644359649.582,20.508,31.738,25.879,5.371,-70.801
1644359649.586,-76.172,22.461,26.855,-4.395,-6.836
1644359649.590,9.277,26.367,29.297,5.371,-50.293
1644359649.594,109.375,29.297,22.461,35.645,-83.984
1644359649.598,56.641,25.879,10.742,22.461,-110.352
1644359649.602,-72.266,18.555,19.531,-0.488,-88.867
1644359649.605,-37.598,16.113,27.832,-6.348,-56.152
1644359649.609,91.797,27.832,27.832,32.715,-68.848
1644359649.613,90.332,36.133,32.715,43.945,-53.711
1644359649.617,-42.480,36.133,35.645,5.859,-40.527
1644359649.621,-72.754,26.367,34.180,4.395,-24.414
1644359649.637,69.824,22.949,29.785,34.180,-55.664
1644359649.641,116.699,27.344,27.344,54.199,-77.148
1644359649.645,-6.348,31.738,32.715,23.438,-62.012
1644359649.649,-84.961,30.762,25.879,11.230,-20.508
1644359649.653,34.180,25.391,25.391,28.809,-45.898
1644359649.657,121.094,22.949,35.156,52.246,-100.586
1644359649.661,38.574,28.320,31.738,14.648,-119.141
1644359649.664,-90.332,33.691,26.855,3.418,-26.855
1644359649.668,-12.695,34.180,30.762,13.672,-62.500
1644359649.672,103.027,41.504,36.133,46.875,-105.957
1644359649.676,70.312,39.062,23.926,33.691,-92.285
1644359649.680,-61.035,30.762,16.602,2.441,-46.387
1644359649.713,-47.363,29.785,28.809,3.418,-23.438
1644359649.717,89.355,30.273,27.832,39.551,-81.055
1644359649.721,91.309,23.926,26.367,52.734,-79.590
1644359649.725,-30.762,25.391,35.645,12.207,-30.273
1644359649.729,-73.242,33.691,37.109,-9.277,-32.227
1644359649.733,59.082,31.738,25.391,14.160,-88.867
1644359649.737,114.258,27.344,28.320,41.016,-74.219
1644359649.740,9.277,20.508,40.039,10.742,-54.199
1644359649.744,-73.242,20.020,42.969,-2.930,-45.410
1644359649.748,28.809,39.062,33.203,8.789,-75.684
1644359649.752,112.305,43.457,22.949,41.016,-60.059
1644359649.756,41.992,38.086,30.762,16.602,-65.918
1644359649.742,-79.102,36.133,29.297,-2.930,-57.129
1644359649.746,-22.461,29.785,23.438,0.977,-35.156
1644359649.750,100.586,30.762,26.855,38.574,-59.570
1644359649.754,81.055,34.668,33.691,32.715,-77.637
1644359649.758,-44.922,30.762,41.016,-7.324,-54.199
1644359649.762,-42.969,27.344,39.551,-3.418,-38.574
1644359649.766,89.844,28.809,27.344,39.551,-77.637
1644359649.769,119.629,20.996,27.832,53.711,-88.867
1644359649.773,-14.160,20.508,40.039,7.812,-47.363
1644359649.777,-88.379,32.227,40.039,-12.207,-27.344
1644359649.781,41.992,27.832,33.691,19.531,-66.406
1644359649.785,117.676,23.438,30.273,52.246,-83.496
1644359649.787,21.484,29.297,30.273,20.996,-86.426
1644359649.791,-88.867,30.762,33.203,-4.883,-21.973
1644359649.795,5.859,33.203,33.203,-4.883,-33.203
1644359649.799,112.305,36.621,35.156,37.109,-63.477
1644359649.803,46.875,23.438,35.645,15.625,-89.844
1644359649.807,-79.590,20.020,31.250,-17.090,-58.105
1644359649.811,-37.109,25.879,35.645,-15.137,-27.832
1644359649.814,92.773,22.461,31.250,21.973,-59.570
1644359649.818,88.867,21.973,24.902,29.297,-67.871
1644359649.822,-45.410,26.855,26.855,0.977,-25.879
1644359649.826,-59.082,30.273,22.949,6.348,-7.324
1644359649.830,84.473,25.391,28.809,34.668,-91.797
1644359649.847,111.328,21.484,33.203,38.086,-112.305
1644359649.851,-11.719,24.414,19.531,10.742,-39.062
1644359649.855,-77.148,24.414,21.973,2.441,-7.812
1644359649.859,36.133,27.344,37.109,16.113,-61.523
1644359649.863,106.934,32.227,38.574,48.828,-68.359
1644359649.867,29.297,34.180,34.668,15.137,-75.195
1644359649.871,-82.520,34.668,31.738,-14.648,-38.574
1644359649.874,3.906,34.180,22.461,-3.418,-37.598
1644359649.878,124.023,26.855,23.438,47.852,-60.547
1644359649.882,72.754,20.020,31.738,24.414,-55.664
1644359649.886,-55.664,29.785,32.227,-1.953,-20.996
1644359649.890,-24.902,36.621,24.902,15.137,-64.453
1644359649.862,104.492,31.250,18.555,45.898,-94.727
1644359649.866,102.539,34.668,25.879,52.734,-55.176
1644359649.870,-24.902,33.203,31.738,13.184,-46.875
1644359649.874,-55.664,22.949,30.273,8.301,-29.297
1644359649.878,70.312,23.926,40.039,49.805,-56.152
1644359649.882,120.605,26.367,46.387,69.824,-102.051
1644359649.886,13.672,29.297,33.691,28.809,-94.727
1644359649.889,-69.824,32.227,29.785,18.066,-35.645
1644359649.893,44.922,30.273,25.391,34.668,-54.199
1644359649.897,133.789,23.926,17.578,59.082,-84.473
1644359649.901,62.500,28.320,31.250,30.273,-71.777
1644359649.905,-62.988,33.691,42.480,18.555,-14.160
1644359649.908,-6.348,22.949,37.109,24.414,-23.438
1644359649.912,115.723,14.160,40.039,50.781,-66.895
1644359649.916,82.520,22.461,44.434,20.996,-96.680
1644359649.920,-57.129,29.785,30.762,-17.578,-82.520
1644359649.924,-55.176,32.715,17.090,-2.930,-32.715
1644359649.928,77.148,33.203,21.484,27.832,-63.965
1644359649.932,99.121,27.832,25.879,27.344,-115.234
1644359649.935,-25.879,26.855,29.785,-0.977,-79.102
1644359649.939,-72.266,27.832,28.320,-11.719,3.906
1644359649.943,59.082,20.508,32.715,5.859,-57.129
1644359649.947,117.676,21.973,39.551,27.832,-83.496
1644359649.951,15.137,30.273,40.039,-3.906,-52.246
1644359649.967,-76.172,30.762,31.250,4.883,-20.996
1644359649.971,25.391,34.180,16.113,27.832,-61.035
1644359649.975,121.094,37.598,14.160,66.406,-84.473
1644359649.979,59.082,36.621,18.555,26.367,-76.172
1644359649.983,-64.941,35.645,26.855,-14.648,-58.594
1644359649.987,-17.578,27.832,33.203,-8.301,-58.594
1644359649.991,110.352,23.438,39.062,25.879,-103.027
1644359649.994,100.098,27.344,38.574,30.762,-82.031
1644359649.998,-41.504,25.879,32.227,3.418,-26.855
1644359650.002,-56.641,23.438,28.809,2.930,-28.809
1644359650.006,92.285,18.555,28.809,41.504,-67.383
1644359650.010,117.188,11.719,25.879,60.547,-66.895
1644359650.012,-9.277,20.020,26.367,23.926,-57.617
1644359650.016,-66.895,31.738,19.043,11.719,-24.414
1644359650.020,55.664,29.785,11.719,28.809,-34.668
1644359650.024,122.070,31.738,32.227,64.453,-38.574
1644359650.028,27.344,39.551,44.922,28.809,-54.688
1644359650.032,-84.961,31.738,36.621,4.395,-40.039
1644359650.036,-7.324,19.531,32.227,12.207,-47.852
1644359650.039,97.656,23.438,31.250,45.410,-32.227
1644359650.043,40.527,34.668,32.715,23.438,-20.508
1644359650.047,-88.867,33.203,34.668,-16.113,-48.828
1644359650.051,-38.574,20.508,23.926,-6.836,-53.711
1644359650.055,108.887,24.414,21.484,39.062,-44.434
1644359650.059,95.703,34.180,22.461,40.039,-85.449
1644359650.063,-43.945,33.203,30.273,0.488,-66.406
1644359650.067,-64.453,26.367,35.645,-9.766,-5.371
1644359650.071,67.383,26.367,26.855,12.695,-62.012
1644359650.075,106.934,28.320,26.855,27.344,-92.773
1644359650.079,-1.465,23.926,24.902,-10.742,-97.168
1644359650.083,-86.426,27.832,20.020,-22.949,-20.996
1644359650.086,22.949,30.273,24.902,-3.906,-20.996
1644359650.090,106.934,25.879,29.297,35.156,-83.984
1644359650.094,17.578,20.996,29.785,-3.906,-69.824
1644359650.098,-97.656,21.484,22.949,-24.902,0.977
1644359650.102,-12.207,25.879,16.113,-5.859,-31.250
1644359650.102,104.492,19.043,23.438,23.438,-79.102
1644359650.106,74.707,26.855,38.574,25.879,-81.543
1644359650.110,-54.199,37.109,39.062,4.883,-51.270
1644359650.114,-45.410,26.855,41.016,0.488,-35.156
1644359650.118,84.473,26.855,38.574,35.156,-58.105
1644359650.122,77.637,5.859,36.133,32.227,-46.875
1644359650.126,-113.770,16.602,52.734,-57.617,-24.414
1644359650.129,-171.387,90.332,46.387,-78.125,-14.648
1644359650.133,34.180,44.434,46.875,16.602,-75.684
1644359650.137,110.352,-8.789,67.871,61.523,-83.496
1644359650.141,-26.367,-1.953,61.523,3.906,-51.758
1644359650.145,-154.297,3.418,51.270,-42.480,-33.203
1644359650.148,-85.938,25.879,47.852,-72.754,-53.223
1644359650.152,1.953,60.059,53.711,-39.551,-48.828
1644359650.156,-106.934,81.055,54.688,-104.980,-24.902
1644359650.160,-263.184,108.887,50.781,-178.711,0.000
1644359650.164,-167.480,142.090,52.246,-149.902,-19.043
1644359650.168,-38.574,172.363,58.594,-107.422,-49.316
1644359650.172,-85.938,198.730,60.547,-127.930,-45.410
1644359650.175,-227.539,229.492,47.852,-169.922,-36.621
1644359650.179,-229.492,265.625,34.180,-174.316,-25.391
1644359650.183,-98.633,294.434,46.387,-139.160,-42.480
1644359650.187,-77.148,318.848,54.199,-123.535,-56.152
1644359650.191,-188.477,342.285,59.082,-155.762,-46.387
1644359650.207,-229.004,348.145,71.777,-148.438,-1.953
1644359650.211,-80.078,345.703,70.801,-98.145,-44.922
1644359650.215,0.977,339.844,64.941,-49.805,-79.102
1644359650.219,-83.984,326.172,49.805,-73.730,-44.434
1644359650.223,-166.016,308.594,31.738,-73.242,-1.465
1644359650.227,-48.340,294.434,30.273,-45.410,-38.574
1644359650.231,60.059,272.949,33.203,-8.301,-75.195
1644359650.234,11.230,251.465,32.227,-32.227,-95.215
1644359650.238,-98.633,233.398,33.203,-48.340,-24.902
1644359650.242,-41.016,204.102,27.344,-18.555,-4.395
1644359650.246,107.910,173.340,20.508,34.180,-62.012
1644359650.250,102.051,144.043,26.855,33.203,-67.871
1644359650.252,-33.203,106.445,12.207,0.488,-42.480
1644359650.256,-28.809,80.078,1.465,18.066,-26.855
1644359650.260,130.371,64.941,10.742,67.383,-75.684
1644359650.264,167.480,30.273,10.742,85.938,-66.406
1644359650.268,51.758,3.418,16.602,56.152,-24.902
1644359650.272,-15.137,-8.789,11.719,58.594,1.465
1644359650.276,111.816,-22.461,-7.812,77.637,-45.410
1644359650.279,190.918,-32.227,-4.395,104.980,-83.984
1644359650.283,102.539,-41.504,12.695,78.125,-44.434
1644359650.287,-4.883,-49.805,19.043,61.523,18.555
1644359650.291,76.172,-61.035,20.508,77.148,-40.039
1644359650.295,175.781,-66.406,8.301,115.723,-98.145
1644359650.282,123.535,-65.430,0.000,91.797,-70.312
1644359650.286,-1.465,-68.848,5.859,50.293,-49.805
1644359650.290,26.855,-72.266,8.301,41.016,-53.711
1644359650.294,154.297,-74.219,15.625,74.219,-57.617
1644359650.298,159.668,-74.707,19.531,82.520,-56.641
1644359650.302,33.691,-73.242,27.832,44.922,-19.043
1644359650.306,-10.742,-67.871,31.250,36.133,-12.207
1644359650.309,114.746,-67.383,16.602,68.359,-59.082
1644359650.313,162.109,-69.824,12.207,98.633,-47.363
1644359650.317,47.852,-62.012,16.602,68.848,-52.246
1644359650.321,-31.250,-53.223,9.277,44.434,-39.062
1644359650.325,85.449,-52.734,2.930,57.617,-63.477
1644359650.342,177.734,-49.316,20.508,107.910,-38.086
1644359650.346,105.469,-44.922,34.668,72.754,-12.207
1644359650.350,-18.066,-52.734,26.367,46.875,-3.906
1644359650.354,51.270,-50.781,23.926,65.918,-34.180
1644359650.358,170.410,-39.551,26.855,110.352,-66.895
1644359650.362,147.461,-36.621,24.902,103.516,-83.008
1644359650.366,16.602,-37.598,23.438,73.242,-43.457
1644359650.369,12.207,-36.133,19.531,69.336,15.625
1644359650.373,153.320,-32.227,23.438,97.168,-15.625
1644359650.377,169.434,-28.320,30.762,88.867,-73.242
1644359650.381,34.668,-23.438,27.832,40.039,-71.289
1644359650.385,-21.484,-22.461,23.438,31.250,2.930
1644359650.403,94.727,-21.484,24.414,53.223,9.277
1644359650.407,145.996,-23.926,20.020,84.961,-46.387
1644359650.411,47.363,-31.250,10.742,55.664,-66.895
1644359650.415,-48.340,-35.645,24.902,37.598,-8.789
1644359650.419,34.180,-27.832,40.527,40.527,-18.555
1644359650.423,127.930,-19.043,36.133,68.848,-57.617
1644359650.427,59.082,-21.973,34.180,39.062,-58.105
1644359650.430,-65.430,-29.785,26.367,13.672,-0.977
1644359650.434,-3.906,-20.508,16.602,25.879,10.254
1644359650.438,125.488,-6.348,15.625,64.941,-28.809
1644359650.442,107.910,-5.371,23.438,50.293,-22.949
1644359650.446,-25.879,-9.766,23.438,9.766,6.348
1644359650.434,-30.762,-9.277,19.531,13.184,-8.789
1644359650.438,103.027,-4.395,21.973,49.805,-28.320
1644359650.442,134.766,-3.418,21.484,65.918,-15.625
1644359650.446,22.461,0.977,26.855,24.414,-43.457
1644359650.450,-44.434,5.859,30.762,12.207,-34.180
1644359650.454,81.543,4.395,26.367,38.574,-43.945
1644359650.458,145.508,2.930,26.367,70.312,-56.641
1644359650.461,42.480,3.418,20.996,42.969,-49.316
1644359650.465,-52.734,6.836,13.672,36.621,-7.812
1644359650.469,36.133,4.395,28.320,47.363,-36.133
1644359650.473,133.301,1.953,33.203,66.895,-59.570
1644359650.477,79.590,5.859,29.297,41.992,-23.438
1644359650.477,-56.641,-0.488,32.715,17.578,4.883
1644359650.481,-22.461,4.883,35.645,15.625,5.859
1644359650.485,106.934,9.766,41.992,51.758,-12.695
1644359650.489,90.820,11.230,34.180,59.570,-33.691
1644359650.493,-41.504,13.184,17.578,12.695,-29.785
1644359650.497,-61.523,3.906,14.160,-0.488,-3.418
1644359650.501,66.406,-0.977,8.301,20.996,-18.066
1644359650.504,95.215,-0.488,10.254,38.574,-43.457
1644359650.508,-16.602,6.348,36.133,3.906,-57.129
1644359650.512,-90.820,16.602,49.316,-13.184,-14.648
1644359650.516,16.602,15.137,39.062,-7.324,-4.395
1644359650.520,103.516,16.602,30.762,23.438,-33.203
1644359650.522,34.668,13.672,28.320,10.254,-28.320
1644359650.526,-78.613,6.348,25.879,-5.371,13.672
1644359650.530,0.488,10.742,18.066,4.883,-12.695
1644359650.534,116.699,16.113,13.672,42.969,-35.645
1644359650.538,81.055,19.531,19.043,29.297,-50.781
1644359650.542,-53.223,19.043,26.855,-5.371,-27.344
1644359650.546,-39.062,17.090,32.715,0.000,14.648
1644359650.549,96.680,20.508,34.180,36.133,-52.246
1644359650.553,98.633,25.879,34.668,24.902,-80.078
1644359650.557,-39.551,26.855,27.832,-17.090,-20.996
1644359650.561,-83.008,19.043,23.438,-13.672,21.484
1644359650.565,49.805,12.695,20.996,17.090,-30.273
1644359650.583,98.145,7.324,25.879,48.340,-48.340
1644359650.587,-13.672,5.859,31.738,11.230,-10.742
1644359650.591,-93.262,12.207,25.879,-9.277,29.297
1644359650.595,18.066,7.812,30.273,17.090,-16.113
1644359650.599,106.934,9.277,37.598,58.105,-26.855
1644359650.603,42.480,20.020,42.480,16.113,-22.461
1644359650.607,-80.566,20.508,43.457,-16.602,-11.230
1644359650.610,-17.090,20.996,42.480,13.184,-27.832
1644359650.614,112.793,14.648,34.668,58.594,-34.668
1644359650.618,79.590,9.766,25.879,39.551,-23.438
1644359650.622,-55.664,16.602,23.438,0.488,-11.719
1644359650.626,-48.340,19.531,32.227,-16.113,16.113
1644359650.613,89.844,20.508,41.504,16.602,-33.691
1644359650.617,110.352,23.926,23.438,42.969,-37.109
1644359650.621,-17.090,24.414,24.902,3.418,-0.488
1644359650.625,-76.660,18.066,39.551,-11.719,22.949
1644359650.629,48.340,19.043,33.691,8.789,-13.184
1644359650.633,111.816,23.926,23.438,43.457,-25.879
1644359650.637,14.648,18.066,26.367,15.137,-31.738
1644359650.640,-85.449,19.531,32.227,-3.418,-8.789
1644359650.644,12.207,22.461,26.367,16.602,-15.625
1644359650.648,110.352,20.996,29.785,43.945,-28.809
1644359650.652,51.758,19.531,37.109,13.184,-76.172
1644359650.656,-77.148,7.812,34.668,2.930,-47.363
1644359650.657,-34.668,9.766,29.785,14.160,8.301
1644359650.661,103.516,20.508,27.832,53.223,2.930
1644359650.665,89.355,21.484,30.762,44.922,-21.973
1644359650.669,-51.758,22.949,40.039,1.465,-6.348
1644359650.673,-68.359,25.879,33.691,7.812,30.762
1644359650.677,65.918,26.855,18.555,28.809,-16.113
1644359650.681,109.863,18.555,28.320,41.016,-68.848
1644359650.684,8.789,9.766,38.574,10.254,-51.270
1644359650.688,-66.895,19.531,40.039,-1.465,21.484
1644359650.692,42.969,25.391,41.504,17.090,-10.742
1644359650.696,127.930,20.020,33.691,52.734,-41.504
1644359650.700,39.551,18.066,38.574,27.344,-27.832
1644359650.717,-79.102,20.020,41.016,1.465,6.348
1644359650.721,6.348,23.438,24.414,4.395,-20.020
1644359650.725,115.723,24.414,25.391,46.875,-42.969
1644359650.729,71.289,28.809,43.945,31.738,-31.250
1644359650.733,-58.105,25.391,45.898,6.348,10.742
1644359650.737,-25.879,20.508,44.434,18.555,-2.930
1644359650.741,106.934,30.273,38.086,54.199,-23.926
1644359650.744,100.098,24.414,26.367,52.246,-22.461
1644359650.748,-24.414,13.184,29.785,13.672,-21.484
1644359650.752,-57.617,21.484,33.691,6.836,-24.902
1644359650.756,73.242,28.320,37.598,20.508,-36.133
1644359650.760,117.188,23.926,34.668,30.273,-14.648
1644359650.807,7.324,20.020,31.250,2.441,-22.949
1644359650.811,-74.707,17.578,43.457,-0.488,-2.930
1644359650.815,29.785,18.066,43.945,22.949,-25.879
1644359650.819,120.605,15.625,36.133,60.547,-38.086
1644359650.823,45.410,17.090,30.762,15.625,-51.758
1644359650.827,-83.984,24.414,32.227,-16.602,-22.949
1644359650.831,-17.090,28.809,38.574,-1.465,-14.160
1644359650.834,107.910,22.461,41.504,39.551,-22.461
1644359650.838,78.125,14.648,37.598,27.832,-34.180
1644359650.842,-56.152,23.926,20.996,-4.883,-31.738
1644359650.846,-51.270,26.855,18.066,2.441,-6.836
1644359650.850,80.566,20.508,29.785,42.969,0.488
1644359650.811,91.797,21.484,37.109,58.594,-13.184
1644359650.815,-25.391,24.414,39.551,7.812,-12.695
1644359650.819,-67.383,22.461,35.156,-6.348,9.766
1644359650.823,51.270,23.438,35.156,33.203,-4.395
1644359650.827,109.863,22.949,36.621,67.383,-14.648
1644359650.831,8.301,21.973,29.297,23.438,-47.363
1644359650.835,-87.402,19.531,24.902,-4.883,16.602
1644359650.838,24.902,7.812,30.273,18.066,-2.930
1644359650.842,111.328,7.812,35.156,55.176,-63.477
1644359650.846,38.574,20.020,38.086,20.508,-46.875
1644359650.850,-77.637,32.715,44.922,0.488,10.742
1644359650.854,-23.438,38.086,38.574,9.766,19.531
1644359650.868,100.098,30.762,20.020,33.691,-9.766
1644359650.872,84.961,30.273,21.973,32.227,-32.227
1644359650.876,-48.340,29.785,34.668,4.883,-15.625
1644359650.880,-62.500,26.855,29.297,6.836,10.742
1644359650.884,81.543,25.391,29.785,33.691,-14.648
1644359650.888,115.234,25.391,40.039,39.062,-18.555
1644359650.892,-17.090,26.367,37.598,-2.930,-16.113
1644359650.895,-84.473,24.902,35.645,-10.742,22.949
1644359650.899,44.434,18.555,25.879,0.488,-46.387
1644359650.903,105.957,23.926,18.555,21.484,-91.797
1644359650.907,9.766,34.668,24.902,1.953,-44.922
1644359650.911,-91.797,31.738,31.250,-5.859,13.672
1644359650.943,3.906,33.691,28.809,11.719,5.859
1644359650.947,110.840,35.645,22.461,59.570,-0.977
1644359650.951,58.105,26.855,30.273,35.156,-5.859
1644359650.955,-69.336,23.926,31.738,10.742,-7.324
1644359650.959,-31.250,29.297,26.367,21.484,7.812
1644359650.963,99.609,30.273,29.785,37.109,-27.832
1644359650.967,91.309,31.738,27.832,27.832,-55.176
1644359650.970,-42.969,31.738,30.273,-10.742,-18.555
1644359650.974,-73.242,26.855,31.250,-6.836,22.949
1644359650.978,70.801,26.855,29.297,31.250,-11.230
1644359650.982,115.234,22.949,25.391,54.199,-23.926
1644359650.986,-5.859,14.160,33.691,18.555,-34.180
1644359650.947,-76.172,17.090,41.016,-12.207,-12.695
1644359650.951,40.527,22.461,42.480,9.766,7.812
1644359650.955,120.605,28.809,40.527,64.453,-6.348
1644359650.959,34.180,32.715,35.156,22.461,-17.578
1644359650.963,-85.938,31.738,32.715,-5.859,15.625
1644359650.967,-11.230,29.785,20.996,10.742,0.977
1644359650.971,110.352,29.297,14.648,59.570,-44.922
1644359650.974,73.242,24.902,29.785,49.316,-60.547
1644359650.978,-68.848,20.508,48.828,11.719,-15.137
1644359650.982,-38.574,26.367,45.898,-3.418,-5.859
1644359650.986,103.027,27.344,36.621,18.555,-32.715
1644359650.990,96.680,19.531,39.062,30.273,-30.273
1644359650.987,-29.297,19.531,32.715,-2.441,16.113
1644359650.991,-67.383,22.949,25.391,6.836,43.457
1644359650.995,57.129,24.902,22.949,44.922,-15.625
1644359650.999,114.746,31.250,22.461,52.246,-4.883
1644359651.003,9.766,27.832,31.738,2.930,15.137
1644359651.007,-82.031,22.461,35.156,-6.348,47.852
1644359651.011,25.879,22.461,40.039,6.348,16.602
1644359651.014,114.258,19.043,29.785,35.645,-43.945
1644359651.018,46.387,26.367,20.020,11.719,-64.941
1644359651.022,-65.918,33.691,33.203,-2.441,3.906
1644359651.026,-11.230,31.250,35.156,16.113,15.625
1644359651.030,104.492,28.809,31.738,56.641,-29.785
1644359651.047,82.520,26.367,29.785,49.805,-31.250
1644359651.051,-53.223,17.578,37.598,3.418,-4.883
1644359651.055,-54.199,16.602,35.156,-2.930,40.039
1644359651.059,77.148,20.508,23.438,32.227,-4.883
1644359651.063,101.074,20.508,37.598,47.852,-20.996
1644359651.067,-22.461,29.785,48.828,19.043,-7.324
1644359651.071,-81.543,28.809,42.969,-0.488,-26.855
1644359651.074,48.340,25.391,35.156,17.578,-41.504
1644359651.078,118.164,35.156,30.762,43.457,-2.441
1644359651.082,23.926,30.762,23.926,1.465,-8.789
1644359651.086,-72.266,20.996,27.344,-13.672,14.160
1644359651.090,20.508,18.066,27.832,4.395,-0.488
1644359651.078,114.746,22.949,34.668,55.664,-27.344
1644359651.082,52.734,25.879,48.828,41.992,-22.461
1644359651.086,-77.148,20.508,43.945,11.719,5.371
1644359651.090,-28.320,19.043,30.273,20.996,28.320
1644359651.094,107.910,22.949,25.879,48.828,-11.719
1644359651.098,94.238,28.809,20.508,30.273,-41.504
1644359651.102,-47.363,26.367,27.832,-11.719,-8.301
1644359651.105,-75.684,26.855,36.133,-15.625,34.668
1644359651.109,69.336,29.297,26.367,20.508,13.184
1644359651.113,106.445,28.320,19.531,41.992,-7.812
1644359651.117,-10.742,21.973,28.320,-1.465,-40.527
1644359651.121,-73.730,13.672,36.621,-13.672,-8.789
1644359651.167,56.641,17.090,35.645,19.043,17.578
1644359651.171,127.441,22.949,23.438,56.152,0.000
1644359651.175,25.391,23.926,26.367,19.043,-20.508
1644359651.179,-82.031,19.043,41.504,3.418,23.926
1644359651.183,9.277,21.973,37.598,22.461,26.367
1644359651.187,116.211,28.320,17.578,53.711,-36.133
1644359651.191,59.570,24.902,20.020,23.926,-44.922
1644359651.194,-73.730,18.555,40.527,-7.812,37.109
1644359651.198,-43.457,17.578,45.410,1.465,33.203
1644359651.202,89.355,18.066,31.738,35.645,-17.090
1644359651.206,93.750,22.949,17.578,40.527,-3.418
1644359651.210,-38.574,27.344,24.414,9.766,9.277
1644359651.171,-79.590,20.996,35.645,8.789,16.113
1644359651.175,54.688,23.438,42.480,40.039,10.742
1644359651.179,102.539,20.020,41.016,60.547,-3.906
1644359651.183,-3.906,11.719,40.527,34.180,-5.859
1644359651.187,-85.938,19.043,44.922,32.715,18.066
1644359651.191,23.438,25.879,32.227,24.414,0.000
1644359651.195,111.328,19.043,23.438,28.809,20.508
1644359651.198,41.016,21.484,34.180,2.930,3.906
1644359651.202,-77.637,32.715,47.363,-14.648,-4.883
1644359651.206,-15.625,27.832,32.227,-6.836,-23.926
1644359651.210,107.422,27.344,22.461,33.691,-29.785
1644359651.214,72.266,27.832,45.898,27.344,-6.348
1644359651.230,-69.336,22.949,49.805,-5.371,22.461
1644359651.234,-58.594,17.090,29.297,-2.441,35.645
1644359651.238,81.543,17.090,19.531,39.062,-4.395
1644359651.242,86.426,23.926,25.391,42.969,-27.344
1644359651.246,-45.410,28.320,41.016,-13.184,-35.645
1644359651.250,-83.496,27.832,51.758,-26.855,8.789
1644359651.254,50.293,25.879,45.410,4.883,-4.395
1644359651.257,102.051,24.414,43.945,45.898,-30.762
1644359651.261,-6.348,19.531,44.434,21.484,-38.086
1644359651.265,-95.215,19.043,34.668,-3.906,-9.766
1644359651.269,7.324,15.137,32.227,8.789,8.301
1644359651.273,107.910,18.555,22.949,54.688,-1.465
1644359651.303,46.875,22.949,7.812,22.949,-9.277
1644359651.307,-78.125,22.461,31.738,-11.719,33.203
1644359651.311,-26.367,25.391,54.688,-1.465,28.809
1644359651.315,100.586,28.320,54.688,44.434,-6.836
1644359651.319,82.031,28.320,57.129,48.340,-11.230
1644359651.323,-45.410,31.738,51.270,13.672,0.488
1644359651.327,-44.434,36.133,34.180,14.160,30.762
1644359651.330,92.285,30.273,26.367,55.176,-12.695
1644359651.334,111.328,27.344,29.785,64.453,-62.012
1644359651.338,-12.695,32.227,29.297,12.695,-36.621
1644359651.342,-71.777,34.180,30.273,-3.906,32.715
1644359651.346,54.688,28.320,30.762,16.602,5.371
1644359651.347,118.164,25.879,35.156,49.316,-12.207
1644359651.351,17.578,26.367,35.645,15.625,37.109
1644359651.355,-85.449,28.809,40.039,3.418,53.223
1644359651.359,4.395,29.297,46.387,19.531,11.230
1644359651.363,111.816,31.738,32.715,51.270,12.695
1644359651.367,53.223,35.156,25.879,22.949,17.578
1644359651.371,-87.891,27.344,34.180,-20.996,31.250
1644359651.374,-47.852,19.531,39.062,-11.719,28.809
1644359651.378,84.473,20.020,35.645,33.691,0.977
1644359651.382,74.219,14.648,28.320,36.621,10.742
1644359651.386,-47.852,13.672,35.645,6.836,34.180
1644359651.390,-64.941,20.020,37.598,9.766,34.668
1644359651.362,67.871,30.762,34.668,43.457,4.395
1644359651.366,115.723,32.715,31.738,53.711,19.043
1644359651.370,9.766,24.414,21.484,5.859,20.996
1644359651.374,-63.965,24.414,24.902,-4.883,12.695
1644359651.378,51.758,30.762,25.391,14.648,30.273
1644359651.382,128.418,32.227,25.879,49.316,34.668
1644359651.386,41.016,29.297,39.062,16.113,-10.742
1644359651.389,-75.684,31.738,35.645,-1.953,10.254
1644359651.393,2.441,31.738,18.555,16.602,-0.488
1644359651.397,115.234,34.668,16.602,52.246,-19.531
1644359651.401,73.242,32.715,33.203,37.109,-3.906
1644359651.405,-54.199,28.809,32.227,-7.812,12.207
1644359651.407,-33.203,29.785,24.414,-18.066,25.879
1644359651.411,98.145,25.391,33.691,32.715,24.902
1644359651.415,100.586,19.043,39.551,41.504,-22.949
1644359651.419,-22.949,22.949,35.156,-5.371,-16.113
1644359651.423,-64.453,23.438,28.809,-4.883,51.270
1644359651.427,64.941,21.973,20.508,24.902,14.160
1644359651.431,122.559,28.320,20.996,44.922,-16.602
1644359651.434,10.254,32.227,22.461,0.977,20.508
1644359651.438,-77.637,31.738,21.973,-6.348,79.102
1644359651.442,39.551,33.691,27.344,7.324,41.992
1644359651.446,121.582,32.715,36.133,29.785,-21.484
1644359651.450,44.922,22.949,38.574,11.230,-4.395
1644359651.467,-70.801,15.137,32.227,-4.395,60.059
1644359651.471,-15.137,20.996,28.809,7.324,29.297
1644359651.475,111.328,24.902,32.715,50.781,2.930
1644359651.479,86.914,28.809,26.855,39.062,-8.789
1644359651.483,-56.152,31.250,16.602,12.695,8.789
1644359651.487,-55.664,23.438,22.949,31.250,62.012
1644359651.491,87.402,27.344,25.391,64.941,41.504
1644359651.494,116.211,35.156,10.742,54.688,4.883
1644359651.498,-9.277,30.762,12.207,0.000,-8.301
1644359651.502,-72.266,19.043,21.484,-8.301,4.395
1644359651.506,60.059,22.461,29.297,20.508,-19.531
1644359651.510,122.559,22.461,33.691,53.711,-16.113
1644359651.587,20.020,15.137,37.109,20.996,13.184
1644359651.591,-76.660,18.066,39.551,-3.418,42.480
1644359651.595,14.160,20.996,28.320,-0.488,26.855
1644359651.599,104.492,23.438,16.602,35.645,19.043
1644359651.603,46.875,25.879,21.484,18.555,2.441
1644359651.607,-77.148,25.879,31.738,-5.859,13.184
1644359651.611,-31.738,17.090,20.508,6.348,46.387
1644359651.614,95.703,10.742,15.137,55.664,27.832
1644359651.618,81.055,18.555,33.203,45.898,-31.738
1644359651.622,-53.223,25.391,41.992,6.348,-12.695
1644359651.626,-64.453,25.879,39.551,9.766,33.691
1644359651.630,74.707,23.438,28.320,36.133,8.301
1644359651.605,101.562,20.508,20.996,52.246,-4.395
1644359651.609,-13.672,25.879,33.203,20.020,36.133
1644359651.613,-77.637,26.367,38.574,14.160,82.031
1644359651.617,43.945,21.973,30.273,27.832,23.926
1644359651.621,118.652,20.508,28.809,49.316,-13.184
1644359651.625,30.762,25.391,24.902,7.324,-40.527
1644359651.629,-86.426,24.902,18.555,-13.672,10.742
1644359651.632,-3.418,19.531,30.762,6.836,6.348
1644359651.636,114.258,25.391,31.250,54.688,-42.969
1644359651.640,64.941,30.273,29.297,41.016,-51.758
1644359651.644,-63.965,26.367,42.480,6.348,2.930
1644359651.648,-22.461,18.066,36.621,0.488,35.156
1644359651.609,116.211,24.902,30.273,37.598,-18.555
1644359651.613,101.074,31.250,24.902,37.109,-29.785
1644359651.617,-38.086,25.391,19.043,-8.789,-5.859
1644359651.621,-70.801,29.785,23.926,-13.184,20.020
1644359651.625,62.500,31.738,23.926,11.230,36.621
1644359651.629,106.445,24.414,24.902,39.062,50.293
1644359651.633,-8.301,22.461,30.762,9.766,67.871
1644359651.636,-92.773,23.926,25.879,-5.371,60.059
1644359651.640,21.973,28.809,20.020,13.672,14.648
1644359651.644,110.840,30.762,24.414,37.598,8.789
1644359651.648,29.297,28.320,30.762,-0.488,-31.250
1644359651.652,-92.285,22.461,26.855,-17.578,-14.648
1644359651.677,-20.020,20.996,20.508,-0.488,11.230
1644359651.681,108.887,31.250,29.785,49.316,-10.254
1644359651.685,77.637,35.156,37.109,31.738,-20.996
1644359651.689,-53.711,31.738,30.762,-10.742,13.672
1644359651.693,-45.410,30.273,24.902,-6.836,53.711
1644359651.697,83.984,35.645,16.113,33.691,41.504
1644359651.701,104.980,38.086,9.277,48.828,-14.648
1644359651.704,-16.602,33.203,19.043,13.184,-14.648
1644359651.708,-59.570,26.855,39.062,10.742,37.109
1644359651.712,61.523,29.785,42.969,22.949,32.227
1644359651.716,105.957,28.320,29.785,34.668,15.625
1644359651.720,0.977,24.414,25.879,-7.324,3.418
1644359651.708,-90.332,25.391,26.855,-20.508,45.898
1644359651.712,10.254,24.414,26.367,1.953,7.324
1644359651.716,108.887,25.879,30.273,30.273,7.812
1644359651.720,38.574,22.949,29.785,2.441,20.508
1644359651.724,-89.844,18.066,33.203,-10.742,19.531
1644359651.728,-25.879,19.043,24.414,-2.441,10.254
1644359651.732,104.980,19.531,18.066,28.320,-4.883
1644359651.735,79.102,26.855,30.762,21.973,3.906
1644359651.739,-57.129,33.691,39.551,-7.812,38.086
1644359651.743,-62.988,33.691,32.715,-3.906,85.938
1644359651.747,68.359,32.227,21.973,29.297,30.273
1644359651.751,97.168,28.320,25.391,43.945,17.090
1644359651.737,-27.344,24.902,38.086,-0.488,38.086
1644359651.741,-93.262,20.996,38.086,-0.977,52.246
1644359651.745,37.109,17.090,27.344,31.250,20.996
1644359651.749,116.211,18.066,20.996,46.875,-20.508
1644359651.753,26.367,23.926,19.043,8.301,-5.859
1644359651.757,-84.473,25.879,26.367,-6.836,39.062
1644359651.761,-0.488,21.973,33.691,6.836,35.156
1644359651.764,105.469,20.020,38.574,46.875,21.973
1644359651.768,51.270,30.273,40.039,24.902,-1.465
1644359651.772,-73.242,35.156,29.297,2.930,35.645
1644359651.776,-30.762,29.297,20.020,11.230,46.875
1644359651.780,98.633,28.320,29.785,49.805,-19.531
1644359651.783,88.379,22.949,37.109,44.434,-7.324
1644359651.787,-52.246,18.066,33.691,-6.836,44.922
1644359651.791,-73.730,22.461,30.762,-11.230,69.336
1644359651.795,76.172,26.367,33.203,15.625,39.551
1644359651.799,115.234,29.297,40.039,45.410,12.695
1644359651.803,-9.766,29.297,49.805,19.043,25.879
1644359651.807,-84.473,25.391,52.734,-0.488,18.555
1644359651.810,33.691,23.926,36.621,18.066,1.465
1644359651.814,115.723,21.973,27.344,49.316,25.391
1644359651.818,27.832,19.043,36.621,13.184,7.812
1644359651.822,-90.820,26.367,36.621,0.977,36.621
1644359651.826,-11.719,27.832,32.715,12.695,34.668
1644359651.828,95.703,24.902,37.109,42.969,0.488
1644359651.832,52.734,25.879,40.039,32.715,14.160
1644359651.836,-74.219,28.809,44.434,12.695,57.129
1644359651.840,-52.246,29.297,42.480,23.438,83.496
1644359651.844,87.402,23.926,33.691,46.387,54.688
1644359651.848,94.238,20.508,30.762,21.484,31.738
1644359651.852,-33.203,16.602,26.367,-20.508,32.227
1644359651.855,-71.289,20.996,26.367,-8.301,75.684
1644359651.859,55.664,23.926,29.785,29.785,75.684
1644359651.863,122.070,17.090,28.809,58.594,3.906
1644359651.867,29.785,20.020,26.855,13.184,-14.160
1644359651.871,-76.172,24.902,21.973,-1.953,47.852
1644359651.917,26.855,24.902,38.086,22.949,24.902
1644359651.921,123.535,22.949,43.945,50.293,0.488
1644359651.925,47.363,22.949,31.738,18.555,1.953
1644359651.929,-77.148,30.273,28.809,-6.348,34.668
1644359651.933,-16.113,34.668,25.391,-2.441,43.945
1644359651.937,108.887,27.832,23.926,41.016,17.578
1644359651.941,80.566,20.996,20.996,35.156,0.000
1644359651.944,-59.082,21.484,21.973,5.371,18.555
1644359651.948,-54.688,20.508,26.855,6.836,50.781
1644359651.952,91.309,19.043,26.367,34.180,20.020
1644359651.956,107.422,25.879,25.391,49.805,0.488
1644359651.960,-32.227,26.367,21.973,12.695,-0.977
1644359651.921,-90.332,22.949,28.320,2.930,29.297
1644359651.925,45.898,25.391,29.297,24.414,47.852
1644359651.929,104.004,24.902,20.996,32.715,34.180
1644359651.933,5.371,25.391,21.484,-11.719,21.973
1644359651.937,-87.891,23.926,26.855,-22.949,26.367
1644359651.941,9.766,20.508,24.414,-5.859,14.160
1644359651.945,102.051,17.090,27.344,34.180,21.973
1644359651.948,45.898,16.113,31.738,17.578,7.812
1644359651.952,-78.613,20.996,33.203,-5.371,31.738
1644359651.956,-38.574,25.391,32.715,0.977,39.551
1644359651.960,102.539,25.391,27.832,36.133,13.184
1644359651.964,86.914,26.367,20.996,27.344,-9.277
1644359651.977,-53.711,26.367,19.531,-7.812,31.250
1644359651.981,-71.289,18.066,19.043,-16.113,40.039
1644359651.985,67.871,21.973,21.484,19.043,-7.324
1644359651.989,95.703,28.809,22.461,55.176,20.020
1644359651.993,-26.367,24.414,25.879,17.090,22.461
1644359651.997,-86.914,20.996,32.227,-7.812,47.852
1644359652.001,31.738,19.043,29.785,15.625,18.066
1644359652.004,100.586,17.578,19.531,53.223,-36.133
1644359652.008,7.324,19.043,18.066,5.371,-17.578
1644359652.012,-113.770,20.508,36.133,-27.832,14.648
1644359652.016,-32.227,28.320,38.574,-18.066,2.441
1644359652.020,83.008,42.480,16.602,20.996,-12.695
1644359652.022,26.855,41.016,11.230,-2.441,-24.414
1644359652.026,-121.094,9.766,2.930,-48.340,7.324
1644359652.030,-87.402,13.672,84.961,-35.156,45.410
1644359652.034,65.918,72.754,117.676,18.555,40.039
1644359652.038,-39.551,113.281,45.410,-80.566,5.371
1644359652.042,-160.156,86.914,62.012,-101.562,6.348
1644359652.046,-29.785,4.395,54.199,52.246,30.762
1644359652.049,113.281,6.348,41.992,92.773,24.414
1644359652.053,73.730,95.215,37.598,36.621,4.395
1644359652.057,-110.840,206.055,38.086,-53.223,16.113
1644359652.061,-233.887,344.238,73.242,-83.008,60.059
1644359652.065,-146.484,503.418,139.160,-82.031,30.762
1644359652.099,-89.355,705.078,264.160,-110.352,13.672
1644359652.103,-182.617,917.969,458.496,-193.359,0.000
1644359652.107,-316.406,-997.070,742.676,-228.516,3.906
1644359652.111,-266.113,994.629,970.703,-238.770,-8.789
1644359652.115,-155.273,998.535,-1000.000,-217.285,-16.602
1644359652.119,-204.102,999.512,993.652,-253.906,21.484
1644359652.123,-350.586,999.512,-999.512,-325.195,26.855
1644359652.126,-358.398,999.512,999.512,-334.961,-25.391
1644359652.130,-227.539,999.512,999.512,-284.668,-46.387
1644359652.134,-206.543,999.512,999.512,-273.438,-20.996
1644359652.138,-330.566,999.512,999.512,-315.430,0.000
1644359652.142,-364.258,999.512,999.512,-312.012,-9.766
1644359652.142,-215.820,998.535,999.512,-260.254,18.066
1644359652.146,-122.070,995.605,999.512,-192.383,13.184
1644359652.150,-184.082,-998.047,-1000.000,-195.801,-23.926
1644359652.154,-250.000,919.434,995.117,-193.359,52.734
1644359652.158,-118.164,747.070,999.512,-151.855,65.430
1644359652.162,1.953,583.984,976.562,-96.191,11.719
1644359652.166,-28.320,431.152,794.922,-96.191,16.602
1644359652.169,-116.699,285.156,529.785,-96.191,72.266
1644359652.173,-56.641,131.836,280.273,-91.797,50.293
1644359652.177,83.496,-5.859,47.852,-41.992,2.930
1644359652.181,83.984,-114.258,-156.738,-25.879,-13.672
1644359652.185,-34.180,-206.543,-332.031,-41.016,10.254
1644359652.160,-20.508,-289.551,-466.309,-23.926,53.223
1644359652.164,124.023,-355.469,-562.012,23.926,17.090
1644359652.168,156.250,-410.645,-624.512,53.711,-12.695
1644359652.172,47.363,-446.777,-667.969,21.973,4.395
1644359652.176,-7.324,-471.680,-701.172,29.297,33.203
1644359652.180,124.512,-491.699,-729.492,72.266,10.254
1644359652.184,195.312,-501.953,-744.141,111.328,42.480
1644359652.187,99.121,-509.766,-741.211,84.473,-0.977
1644359652.191,5.859,-515.625,-734.375,72.266,2.441
1644359652.195,103.027,-516.602,-728.027,93.262,28.809
1644359652.199,203.613,-512.695,-717.773,133.301,-20.996
1644359652.203,155.762,-504.395,-705.566,104.004,-5.371
1644359652.217,31.250,-491.211,-673.828,64.941,19.043
1644359652.221,70.312,-473.145,-641.602,73.242,63.477
1644359652.225,199.707,-455.566,-618.652,113.281,79.590
1644359652.229,187.500,-439.453,-593.262,121.582,58.594
1644359652.233,58.594,-425.781,-563.965,89.844,7.324
1644359652.237,32.715,-415.039,-541.504,91.797,-19.043
1644359652.241,155.762,-406.250,-533.691,127.441,8.301
1644359652.244,190.430,-388.672,-517.578,139.648,-34.180
1644359652.248,78.125,-369.141,-479.004,91.797,-1.953
1644359652.252,1.953,-357.422,-451.660,72.266,55.176
1644359652.256,115.723,-348.145,-442.871,89.355,-16.113
1644359652.260,189.453,-338.379,-422.852,122.070,20.508
1644359652.279,102.051,-328.125,-392.578,82.031,23.438
1644359652.283,-17.090,-311.035,-372.070,62.012,18.555
1644359652.287,57.617,-291.992,-361.328,75.684,10.254
1644359652.291,171.387,-276.855,-348.145,118.164,10.742
1644359652.295,121.582,-262.207,-334.961,113.281,25.391
1644359652.299,-13.184,-254.395,-322.754,73.730,38.574
1644359652.303,12.695,-243.164,-301.758,62.500,68.848
1644359652.306,145.020,-234.863,-285.156,98.633,19.531
1644359652.310,145.508,-232.422,-262.207,111.328,21.484
1644359652.314,9.766,-220.703,-235.352,59.570,45.898
1644359652.318,-30.273,-214.844,-239.746,48.828,30.273
1644359652.322,111.328,-201.172,-235.840,94.727,31.738
1644359652.308,154.785,-179.199,-209.473,100.586,44.434
1644359652.312,39.551,-164.062,-193.848,51.270,42.480
1644359652.316,-45.410,-153.809,-192.871,45.898,10.742
1644359652.320,72.266,-147.461,-188.965,65.918,28.809
1644359652.324,163.574,-141.602,-172.363,108.398,58.594
1644359652.328,83.496,-142.090,-157.227,76.660,7.324
1644359652.332,-41.016,-142.090,-146.973,44.922,21.484
1644359652.335,18.555,-129.395,-142.578,56.641,86.914
1644359652.339,149.414,-108.398,-142.090,88.867,34.180
1644359652.343,122.070,-97.168,-136.230,84.961,11.719
1644359652.347,-15.137,-91.797,-127.441,43.945,21.973
1644359652.351,-12.207,-89.844,-127.441,33.691,8.301
1644359652.352,125.000,-91.309,-116.211,74.219,71.289
1644359652.356,135.254,-83.496,-95.215,82.520,64.941
1644359652.360,0.488,-79.590,-87.891,51.270,23.438
1644359652.364,-53.223,-73.242,-85.449,44.434,66.895
1644359652.368,69.824,-69.336,-77.637,52.246,23.926
1644359652.372,137.207,-69.336,-66.406,73.242,8.301
1644359652.376,43.457,-58.105,-61.523,35.156,27.832
1644359652.379,-56.152,-58.105,-70.801,16.602,-0.977
1644359652.383,37.109,-60.547,-79.102,28.320,66.406
1644359652.387,132.324,-53.223,-71.777,69.336,66.406
1644359652.391,67.871,-53.711,-67.871,53.223,8.789
1644359652.395,-60.059,-43.457,-67.871,18.555,31.250
1644359652.412,-11.719,-33.691,-68.359,22.949,-11.719
1644359652.416,109.375,-34.180,-58.594,55.176,-14.648
1644359652.420,90.820,-33.691,-42.480,42.969,15.625
1644359652.424,-36.621,-34.668,-33.691,2.441,6.348
1644359652.428,-50.293,-31.250,-33.203,0.000,39.062
1644359652.432,87.402,-31.250,-32.227,46.387,25.391
1644359652.436,116.699,-32.715,-28.809,79.102,14.160
1644359652.439,-0.488,-31.250,-35.156,37.109,42.480
1644359652.443,-64.453,-29.297,-43.457,2.930,26.855
1644359652.447,50.781,-24.902,-43.945,5.371,56.641
1644359652.451,123.047,-23.926,-34.180,39.551,56.641
1644359652.455,38.574,-28.320,-24.902,10.742,3.906
1644359652.442,-79.590,-22.949,-23.926,-14.160,38.574
1644359652.446,-3.906,-17.090,-22.461,2.441,27.832
1644359652.450,111.328,-18.066,-26.367,44.434,-8.789
1644359652.454,61.035,-5.859,-22.949,35.156,6.836
1644359652.458,-68.359,-7.324,-18.555,10.254,48.340
1644359652.462,-28.320,-17.090,-24.902,8.301,67.871
1644359652.466,100.586,-13.184,-27.832,41.992,40.039
1644359652.469,91.797,-13.672,-28.320,48.340,-7.812
1644359652.473,-41.016,-12.695,-9.277,25.391,-6.836
1644359652.477,-62.988,-8.301,4.395,20.020,27.832
1644359652.481,79.102,-9.766,-3.906,35.156,-4.883
1644359652.485,117.188,-8.301,-4.395,49.805,-21.973
1644359652.487,3.906,-8.301,-2.441,20.996,-3.418
1644359652.491,-79.102,-11.230,-17.578,7.324,-22.949
1644359652.495,31.250,-5.859,-22.949,15.625,15.137
1644359652.499,118.164,3.418,-7.324,61.035,13.672
1644359652.503,40.039,1.953,-1.465,42.480,42.969
1644359652.507,-71.289,-1.465,4.883,19.531,48.828
1644359652.511,-0.977,0.977,5.859,29.785,18.066
1644359652.514,110.840,0.977,-3.906,61.523,-7.812
1644359652.518,70.312,1.953,1.953,41.016,-39.551
1644359652.522,-61.523,-6.348,11.719,10.254,45.898
1644359652.526,-44.434,-7.812,8.789,11.719,60.547
1644359652.530,87.402,6.836,-1.953,39.551,78.125
1644359652.533,98.145,15.137,-0.488,46.387,72.754
1644359652.537,-24.902,11.230,-7.324,8.301,3.418
1644359652.541,-78.125,7.324,-8.789,5.371,29.297
1644359652.545,50.781,2.441,7.812,36.133,27.344
1644359652.549,114.258,0.977,0.000,62.988,-0.488
1644359652.553,7.812,-0.488,-3.418,19.531,-12.695
1644359652.557,-81.543,-1.465,8.301,-10.254,27.832
1644359652.560,25.879,3.906,10.742,0.488,41.504
1644359652.564,120.117,4.883,8.301,44.434,-16.602
1644359652.568,49.316,12.695,10.742,28.320,-4.883
1644359652.572,-78.613,17.578,13.672,1.465,47.852
1644359652.576,-23.926,12.695,17.578,-0.488,41.504
1644359652.652,103.516,7.812,4.395,41.016,11.719
1644359652.656,72.754,4.395,-9.766,30.273,35.156
1644359652.660,-66.895,2.930,-1.465,-15.625,43.945
1644359652.664,-70.312,4.883,1.465,-18.066,27.832
1644359652.668,67.871,3.418,7.324,17.578,-18.555
1644359652.672,98.633,0.000,12.207,33.203,-42.969
1644359652.676,-20.508,-4.395,14.160,-7.812,41.016
1644359652.679,-85.938,0.000,13.184,-6.836,77.148
1644359652.683,46.387,8.301,7.324,24.902,30.273
1644359652.687,123.047,14.648,9.277,51.270,57.129
1644359652.691,29.297,17.090,11.230,15.137,74.707
1644359652.695,-68.848,19.043,3.906,3.418,65.918
1644359652.656,14.648,16.113,3.418,20.020,62.500
1644359652.660,107.910,8.789,9.766,45.410,27.344
1644359652.664,54.688,8.301,16.113,22.461,10.254
1644359652.668,-76.660,5.859,17.090,-5.371,17.090
1644359652.672,-40.527,4.883,10.254,0.000,4.883
1644359652.676,89.355,9.766,5.859,45.898,-21.484
1644359652.680,84.961,13.184,13.184,41.016,8.789
1644359652.683,-36.133,14.160,19.043,-5.371,45.410
1644359652.687,-59.570,6.348,11.719,-1.465,36.621
1644359652.691,68.359,8.789,0.488,34.180,-16.113
1644359652.695,104.492,12.695,7.812,40.039,17.090
1644359652.699,-9.766,6.348,13.184,-13.672,52.246
1644359652.682,-95.215,10.254,5.859,-27.344,35.645
1644359652.686,20.508,13.672,12.207,-2.930,65.918
1644359652.690,110.352,16.113,19.043,41.016,36.621
1644359652.694,35.156,16.602,25.391,6.348,-29.297
1644359652.698,-83.008,12.695,29.785,-20.996,-15.137
1644359652.702,-8.301,12.207,25.879,-0.977,40.527
1644359652.706,110.840,14.160,17.090,44.434,76.172
1644359652.709,65.918,17.578,6.836,33.691,8.301
1644359652.713,-62.500,16.113,12.207,8.789,-25.391
1644359652.717,-44.922,13.184,23.926,9.277,60.059
1644359652.721,86.914,9.277,22.949,35.645,49.316
1644359652.725,101.074,9.277,20.020,41.992,6.836
1644359652.728,-27.344,14.160,27.832,12.207,28.809
1644359652.732,-64.453,9.277,31.250,14.160,-16.602
1644359652.736,70.801,8.789,19.531,36.133,-52.734
1644359652.740,123.535,15.137,15.137,52.734,-40.039
1644359652.744,18.066,19.531,12.695,14.160,-19.043
1644359652.748,-81.543,22.461,9.277,-1.465,58.105
1644359652.752,12.207,20.020,13.672,18.066,82.031
1644359652.755,113.281,12.695,19.043,52.734,23.926
1644359652.759,45.898,10.742,29.785,18.555,24.902
1644359652.763,-92.773,9.277,36.133,-8.301,80.078
1644359652.767,-39.062,6.836,28.320,3.418,103.027
1644359652.771,91.797,13.184,22.461,54.199,87.402
1644359652.892,62.988,16.602,17.578,42.969,28.320
1644359652.896,-68.359,19.531,18.066,0.000,-11.230
1644359652.900,-59.082,23.438,14.648,8.301,61.035
1644359652.904,77.148,20.020,6.348,49.805,119.141
1644359652.908,91.797,14.160,15.137,64.453,64.941
1644359652.912,-35.645,11.230,20.996,5.859,-11.230
1644359652.916,-85.938,14.160,22.461,-7.324,5.371
1644359652.919,51.270,19.531,19.043,22.949,38.086
1644359652.923,115.723,21.484,15.137,39.062,12.695
1644359652.927,10.742,20.020,18.066,9.766,-0.977
1644359652.931,-87.402,16.602,23.926,3.906,25.879
1644359652.935,20.996,19.531,23.438,18.555,14.160
1644359652.896,122.070,21.973,16.113,56.641,-33.203
1644359652.900,56.641,22.949,12.207,37.109,-18.555
1644359652.904,-70.801,25.879,20.508,2.930,20.508
1644359652.908,-23.926,26.855,30.762,3.418,18.555
1644359652.912,105.957,27.344,32.227,42.480,53.223
1644359652.916,90.332,20.020,24.902,42.969,43.457
1644359652.920,-39.062,11.719,22.461,4.395,19.531
1644359652.923,-48.828,20.508,21.973,2.441,21.973
1644359652.927,77.637,27.344,21.484,36.621,25.391
1644359652.931,106.934,24.414,22.949,53.223,50.781
1644359652.935,-7.324,20.996,12.207,18.555,35.156
1644359652.939,-74.707,24.414,12.695,7.812,14.648
1644359652.910,38.086,23.438,25.879,19.531,36.133
1644359652.914,116.211,16.602,27.344,42.480,107.910
1644359652.918,33.203,20.020,19.531,9.277,60.547
1644359652.922,-86.426,21.484,19.531,-4.395,19.531
1644359652.926,-1.465,17.090,25.879,12.695,54.688
1644359652.930,122.070,13.672,25.879,54.688,48.340
1644359652.934,66.895,9.766,27.832,42.969,-15.137
1644359652.937,-66.406,11.230,17.090,7.812,0.000
1644359652.941,-34.180,18.066,4.395,-3.906,3.418
1644359652.945,91.797,21.484,21.973,31.738,-28.320
1644359652.949,86.914,24.414,28.320,38.574,48.828
1644359652.953,-49.316,22.461,14.648,7.324,72.266
1644359652.924,-74.707,14.160,15.625,6.348,5.371
1644359652.928,64.453,12.695,23.438,29.785,4.883
1644359652.932,107.422,14.648,24.902,43.457,41.016
1644359652.936,-5.371,10.254,19.531,-12.207,15.625
1644359652.940,-86.426,4.395,20.020,-17.090,18.555
1644359652.944,23.926,14.648,14.160,18.066,68.848
1644359652.948,114.258,24.902,2.930,52.246,17.090
1644359652.951,46.387,22.461,15.137,27.344,16.602
1644359652.955,-72.266,18.066,27.832,6.836,113.770
1644359652.959,-6.348,21.484,19.531,19.531,69.336
1644359652.963,109.863,24.414,20.020,57.617,49.805
1644359652.967,75.684,19.043,23.438,36.133,66.895
1644359652.982,-60.547,16.602,23.438,10.254,19.531
1644359652.986,-50.293,20.508,26.855,7.812,43.457
1644359652.990,84.961,21.973,20.996,29.297,20.996
1644359652.994,93.262,23.438,17.090,45.898,-17.090
1644359652.998,-29.297,28.809,24.902,10.742,-15.137
1644359653.002,-67.383,26.855,19.043,-2.930,-50.293
1644359653.006,59.570,21.973,5.371,12.207,39.551
1644359653.009,119.629,19.531,20.020,41.016,53.711
1644359653.013,19.531,17.578,31.738,20.996,-20.996
1644359653.017,-82.031,19.531,30.273,6.836,3.906
1644359653.021,10.742,22.461,29.785,14.648,-17.090
1644359653.025,110.840,26.367,25.879,55.176,3.418
1644359653.072,49.805,24.414,33.203,36.133,32.227
1644359653.076,-73.242,19.531,32.715,11.719,14.648
1644359653.080,-22.461,21.484,21.973,11.719,24.902
1644359653.084,98.145,26.367,23.926,49.316,30.273
1644359653.088,73.730,25.879,25.391,41.992,37.109
1644359653.092,-52.734,18.066,20.508,10.254,11.230
1644359653.096,-56.641,14.160,23.926,28.320,0.977
1644359653.099,78.613,15.625,25.879,53.711,58.105
1644359653.103,108.398,19.043,20.508,40.527,38.086
1644359653.107,-12.695,25.391,21.973,-8.301,5.371
1644359653.111,-79.590,18.066,32.227,-4.883,42.480
1644359653.115,47.363,10.254,29.785,26.367,50.781
1644359653.076,126.465,10.254,27.832,52.734,26.855
1644359653.080,26.855,11.719,23.438,28.320,31.738
1644359653.084,-83.496,21.484,23.438,10.254,74.219
1644359653.088,12.695,26.855,25.391,19.043,46.387
1644359653.092,121.582,27.344,10.254,57.617,16.602
1644359653.096,64.453,20.508,8.301,34.180,33.691
1644359653.100,-69.824,11.230,25.391,5.859,67.383
1644359653.103,-24.414,12.695,35.645,13.184,29.785
1644359653.107,110.840,18.555,39.062,51.758,-28.809
1644359653.111,90.332,21.973,31.250,47.852,36.621
1644359653.115,-42.969,18.555,24.902,5.371,51.758
1644359653.119,-64.941,12.695,18.066,6.836,56.641
1644359653.117,68.848,20.020,11.230,49.805,105.469
1644359653.121,110.352,25.391,13.672,67.871,88.867
1644359653.125,5.371,24.414,20.996,13.672,48.828
1644359653.129,-64.941,23.438,28.809,-8.301,37.598
1644359653.133,52.734,20.020,20.996,9.766,33.691
1644359653.137,137.207,24.414,22.949,41.016,52.246
1644359653.141,50.293,30.273,31.738,12.695,7.812
1644359653.144,-67.871,29.785,23.926,4.395,1.953
1644359653.148,11.230,20.508,13.184,25.391,54.199
1644359653.152,127.441,19.531,13.184,61.523,40.527
1644359653.156,83.008,24.902,26.367,41.016,25.879
1644359653.160,-51.270,24.414,28.809,12.695,33.203
1644359653.177,-31.738,24.414,24.902,16.113,47.363
1644359653.181,94.727,22.461,31.250,42.969,-3.418
1644359653.185,104.980,21.484,29.785,45.410,-34.180
1644359653.189,-17.578,23.438,27.344,2.441,5.859
1644359653.193,-57.617,23.926,19.043,-8.301,41.504
1644359653.197,69.824,24.414,11.719,19.531,-26.855
1644359653.201,120.605,27.832,20.996,42.969,-28.809
1644359653.204,14.648,32.715,33.203,15.137,-4.395
1644359653.208,-81.543,33.203,32.227,-1.465,0.488
1644359653.212,24.414,26.855,27.344,12.695,16.602
1644359653.216,122.559,21.973,24.902,58.105,46.875
1644359653.220,56.152,19.531,27.344,28.809,53.711
1644359653.192,-67.383,18.555,21.484,-3.418,42.969
1644359653.196,-11.230,27.344,11.719,7.324,71.777
1644359653.200,115.723,35.645,19.531,46.875,51.270
1644359653.204,83.984,32.715,25.879,33.203,5.371
1644359653.208,-60.547,26.367,26.367,-1.953,-9.277
1644359653.212,-55.664,24.414,26.855,2.441,36.133
1644359653.216,89.355,23.926,28.809,30.762,53.711
1644359653.219,113.770,20.508,24.414,39.062,-1.465
1644359653.223,-6.348,21.973,21.973,6.836,-0.977
1644359653.227,-74.707,26.367,24.902,6.836,74.707
1644359653.231,40.527,26.367,18.555,37.109,38.086
1644359653.235,114.258,21.484,9.277,56.152,25.879
1644359653.238,15.137,18.555,8.789,15.137,80.078
1644359653.242,-91.797,25.879,19.043,-4.395,30.273
1644359653.246,12.207,27.344,25.879,14.648,32.715
1644359653.250,116.699,24.414,20.020,47.852,62.988
1644359653.254,54.199,27.344,18.066,12.207,46.875
1644359653.258,-70.312,27.344,19.531,-3.418,17.090
1644359653.262,-25.391,23.926,12.207,7.324,28.320
1644359653.265,98.145,25.391,4.395,46.875,80.566
1644359653.269,82.520,29.297,7.812,47.852,43.457
1644359653.273,-43.945,27.344,26.855,11.719,15.137
1644359653.277,-55.664,25.391,37.598,22.461,52.734
1644359653.281,78.125,24.414,29.297,54.688,19.531
1644359653.282,104.980,31.738,21.484,64.941,-9.766
1644359653.286,-11.230,32.227,24.902,32.715,-23.438
1644359653.290,-78.125,24.414,30.273,18.066,9.277
1644359653.294,32.715,24.902,25.879,29.785,-4.883
1644359653.298,112.793,31.738,4.395,52.246,-46.875
1644359653.302,32.227,29.785,8.301,7.324,-24.902
1644359653.306,-76.172,22.461,32.715,-15.625,27.832
1644359653.309,3.418,21.484,36.133,-1.953,46.875
1644359653.313,107.910,22.949,33.203,43.945,39.551
1644359653.317,57.129,23.926,25.879,23.438,8.789
1644359653.321,-72.754,28.809,18.066,-16.602,-18.555
1644359653.325,-34.180,30.762,22.949,-12.695,2.930
1644359653.372,95.703,23.926,16.113,28.809,76.172
1644359653.376,94.727,20.508,11.719,38.086,74.219
1644359653.380,-37.109,24.414,21.973,3.418,46.387
1644359653.384,-70.801,22.949,19.043,-1.465,44.922
1644359653.388,69.824,25.391,16.113,20.996,26.855
1644359653.392,115.723,22.461,24.414,30.273,17.090
1644359653.396,1.465,19.043,27.344,-6.348,-33.203
1644359653.399,-75.684,30.762,22.461,-10.742,-10.254
1644359653.403,34.668,25.391,20.020,10.254,59.082
1644359653.407,111.328,14.648,15.137,45.410,61.035
1644359653.411,30.762,18.066,12.207,13.672,5.859
1644359653.415,-82.031,25.391,13.672,-1.953,4.883
1644359653.420,-3.906,27.344,22.949,16.113,52.246
1644359653.424,116.699,30.273,21.973,57.617,50.293
1644359653.428,67.871,29.297,24.414,46.875,20.996
1644359653.432,-72.266,16.602,37.598,0.977,-23.438
1644359653.436,-53.223,13.184,40.527,-5.371,-8.789
1644359653.440,87.402,21.484,33.691,37.109,22.461
1644359653.444,102.539,20.508,13.184,46.875,18.555
1644359653.447,-30.273,20.020,20.020,4.883,25.879
1644359653.451,-76.660,24.902,39.551,-9.277,37.598
1644359653.455,60.547,25.391,34.668,12.207,15.137
1644359653.459,120.117,20.508,29.785,49.805,51.758
1644359653.463,11.719,16.113,31.250,16.602,56.641
1644359653.425,-84.473,20.020,27.832,2.441,62.988
1644359653.429,22.949,22.949,16.602,20.996,62.988
1644359653.433,118.164,21.973,15.137,44.434,25.391
1644359653.437,41.504,27.832,18.555,10.742,38.086
1644359653.441,-81.543,32.227,14.160,-12.207,42.480
1644359653.445,-22.461,22.949,17.578,0.488,55.176
1644359653.449,106.934,22.949,24.902,42.969,25.391
1644359653.452,89.844,24.414,25.391,33.691,17.090
1644359653.456,-51.758,18.555,12.207,-7.812,-1.953
1644359653.460,-58.594,18.066,13.672,-14.160,-2.441
1644359653.464,81.543,21.484,27.832,25.391,41.992
1644359653.468,103.027,19.043,29.785,45.898,7.812
1644359653.494,-20.020,18.555,29.297,9.277,20.020
1644359653.498,-76.660,29.297,33.691,-5.859,23.438
1644359653.502,50.293,25.879,35.156,15.625,-29.785
1644359653.506,112.793,20.508,28.320,40.039,-50.293
1644359653.510,12.207,25.879,15.625,-0.977,-21.484
1644359653.514,-93.750,20.020,15.137,-9.766,5.859
1644359653.518,0.000,14.160,19.043,2.930,12.207
1644359653.521,107.422,23.926,20.996,39.551,36.133
1644359653.525,57.617,27.344,24.902,30.273,13.184
1644359653.529,-74.219,15.137,28.320,6.348,32.715
1644359653.533,-38.086,13.672,31.738,18.066,52.734
1644359653.537,96.680,23.926,30.273,61.523,7.324
1644359653.522,85.938,31.250,21.484,55.664,46.387
1644359653.526,-49.316,24.902,22.461,17.578,48.828
1644359653.530,-70.801,16.113,21.973,8.301,33.203
1644359653.534,65.918,22.949,20.508,29.297,33.203
1644359653.538,105.469,20.020,17.578,34.180,23.926
1644359653.542,-17.578,14.648,15.137,-17.090,45.898
1644359653.546,-94.727,19.531,11.230,-26.855,11.230
1644359653.549,27.832,23.926,8.789,10.742,21.973
1644359653.553,107.910,23.926,22.461,60.059,59.082
1644359653.557,21.973,28.809,26.367,21.484,-13.672
1644359653.561,-87.891,31.738,26.855,-7.812,25.391
1644359653.565,-9.277,22.949,30.273,0.977,58.594
1644359653.567,105.957,20.996,24.902,39.551,-3.906
1644359653.571,61.523,26.367,13.672,29.785,-7.324
1644359653.575,-66.406,27.344,10.742,3.418,-6.836
1644359653.579,-50.781,30.762,15.137,7.324,22.461
1644359653.583,77.637,27.832,21.484,49.316,56.152
1644359653.587,92.285,19.531,26.367,59.082,26.855
1644359653.591,-34.668,18.555,26.855,24.414,72.754
1644359653.594,-69.824,24.902,23.438,11.719,74.707
1644359653.598,67.871,33.203,20.996,15.625,-1.465
1644359653.602,111.816,32.227,19.531,31.250,-20.996
1644359653.606,2.441,28.809,17.578,1.953,35.645
1644359653.610,-75.195,27.344,14.160,-0.488,66.406
1644359653.612,32.227,24.414,12.207,17.090,32.227
1644359653.616,122.070,26.855,12.695,45.898,8.301
1644359653.620,46.387,24.414,21.484,26.855,6.836
1644359653.624,-77.637,26.367,28.320,5.859,-11.719
1644359653.628,-13.184,22.949,23.926,15.137,1.953
1644359653.632,114.258,13.672,21.973,58.105,49.316
1644359653.636,75.195,23.438,27.832,35.645,24.902
1644359653.639,-62.500,27.832,18.066,-1.465,74.707
1644359653.643,-46.875,21.484,13.672,7.812,84.961
1644359653.647,91.309,21.484,20.020,43.457,41.016
1644359653.651,105.957,21.973,17.090,49.805,28.809
1644359653.655,-18.555,23.926,11.719,8.789,20.996
1644359653.657,-74.219,27.344,21.484,17.578,64.941
1644359653.661,55.664,24.414,33.691,48.828,90.820
1644359653.665,125.488,12.695,34.180,69.824,34.668
1644359653.669,17.090,11.230,23.438,25.879,-36.621
1644359653.673,-85.449,21.484,10.742,9.766,37.109
1644359653.677,19.531,28.320,16.602,29.785,87.891
1644359653.681,119.141,26.855,22.461,49.805,96.191
1644359653.684,50.293,23.926,15.625,20.020,86.426
1644359653.688,-82.031,24.414,18.555,-2.441,7.812
1644359653.692,-37.598,22.949,29.785,-6.348,35.645
1644359653.696,94.238,23.926,27.344,24.414,36.133
1644359653.700,76.660,22.949,21.973,22.461,18.555
1644359653.718,-61.035,17.090,15.137,-3.906,30.273
1644359653.722,-70.312,17.090,13.184,-2.441,0.000
1644359653.726,69.336,22.949,23.926,20.996,22.949
1644359653.730,99.609,19.043,29.785,31.738,15.137
1644359653.734,-21.973,15.137,31.738,-7.324,36.133
1644359653.738,-85.449,20.996,33.203,-11.719,29.297
1644359653.742,39.062,29.297,26.855,13.184,-2.441
1644359653.745,113.770,29.297,15.625,56.152,23.438
1644359653.749,27.344,25.391,16.602,19.531,57.129
1644359653.753,-76.172,25.879,16.602,-10.254,89.355
1644359653.757,5.371,25.391,4.883,14.160,56.641
1644359653.761,106.934,23.926,5.859,68.848,76.172
1644359653.897,62.988,22.949,21.484,66.406,45.410
1644359653.901,-63.965,22.461,32.227,24.414,10.254
1644359653.905,-29.785,22.461,29.785,14.160,28.320
1644359653.909,97.656,21.484,22.461,51.758,-30.273
1644359653.913,92.285,18.066,23.926,42.969,-62.988
1644359653.917,-23.438,20.996,27.344,6.836,-5.859
1644359653.921,-46.387,25.879,20.996,2.930,44.922
1644359653.924,81.055,26.367,12.207,25.879,43.945
1644359653.928,118.164,23.926,19.043,53.711,65.430
1644359653.932,6.348,21.973,15.137,10.254,60.547
1644359653.936,-77.148,23.926,4.883,-7.324,20.020
1644359653.940,27.832,24.902,9.766,1.953,10.254
1644359653.901,111.328,20.508,18.555,29.785,21.484
1644359653.905,29.785,22.949,24.902,6.348,75.195
1644359653.909,-91.797,22.461,24.902,-22.461,50.781
1644359653.913,-23.438,22.949,19.043,-4.395,10.254
1644359653.917,98.145,17.090,22.949,41.504,8.301
1644359653.921,64.941,10.254,30.273,26.367,-7.812
1644359653.925,-70.312,15.625,28.809,-10.742,7.812
1644359653.928,-48.828,16.113,24.414,-8.789,2.930
1644359653.932,93.750,21.973,13.184,40.527,11.230
1644359653.936,105.469,25.879,2.930,54.199,38.086
1644359653.940,-23.438,19.531,14.160,18.066,8.789
1644359653.944,-66.895,18.066,25.879,23.926,9.766
1644359653.929,63.965,21.484,25.391,46.875,31.250
1644359653.933,115.723,24.902,21.484,53.223,35.156
1644359653.937,10.254,23.926,23.438,4.395,75.684
1644359653.941,-92.285,18.066,26.855,-19.043,73.730
1644359653.945,10.254,19.043,20.508,-3.906,13.672
1644359653.949,111.328,17.578,17.578,43.457,-13.184
1644359653.953,38.574,10.254,21.973,17.578,41.992
1644359653.956,-85.938,15.625,30.762,-4.395,59.082
1644359653.960,-23.438,24.902,31.738,12.695,40.039
1644359653.964,101.562,27.832,9.277,35.156,44.922
1644359653.968,42.480,2.930,0.488,-13.672,46.875
1644359653.972,-91.797,9.766,33.203,-41.992,58.105
1644359653.933,-44.434,56.641,53.711,0.977,55.176
1644359653.937,101.074,37.598,38.574,39.551,69.824
1644359653.941,99.121,29.297,21.484,25.879,49.316
1644359653.945,-45.898,51.758,18.066,-44.434,0.488
1644359653.949,-119.141,22.461,32.715,-56.152,25.391
1644359653.953,-4.883,-1.953,46.875,-24.902,-35.645
1644359653.957,39.062,-4.395,53.711,0.488,15.625
1644359653.960,-80.078,-3.906,58.594,-51.270,52.734
1644359653.964,-197.266,-8.789,41.992,-110.352,9.766
1644359653.968,-106.934,-4.395,43.945,-115.723,47.852
1644359653.972,-10.742,5.371,58.594,-83.984,34.180
1644359653.976,-81.055,8.301,52.246,-118.652,-15.625
1644359653.957,-217.285,9.766,52.734,-142.578,-3.418
1644359653.961,-174.316,9.277,62.012,-129.395,28.809
1644359653.965,-44.922,19.043,64.941,-83.496,73.730
1644359653.969,-55.664,31.250,60.059,-89.844,3.906
1644359653.973,-173.340,35.156,53.711,-129.883,24.902
1644359653.977,-183.594,41.016,48.828,-113.770,76.660
1644359653.981,-38.574,43.457,40.039,-65.430,18.555
1644359653.984,16.113,48.828,36.621,-44.434,-7.324
1644359653.988,-80.078,52.246,37.598,-85.938,40.527
1644359653.992,-133.789,49.805,38.086,-72.266,90.332
1644359653.996,-0.488,47.852,35.645,-26.367,65.918
1644359654.000,91.309,44.922,36.621,21.484,37.598
1644359654.002,13.184,43.945,40.527,2.930,30.273
1644359654.006,-94.727,33.691,28.320,-19.531,46.875
1644359654.010,-10.254,19.043,7.812,0.488,22.461
1644359654.014,112.305,21.484,7.812,62.500,13.184
1644359654.018,78.613,32.715,23.438,41.504,-5.859
1644359654.022,-47.852,39.551,31.250,4.395,24.414
1644359654.026,-16.113,38.086,27.344,20.020,83.496
1644359654.029,125.000,36.133,15.625,62.988,-9.766
1644359654.033,134.766,31.250,16.602,76.172,-14.160
1644359654.037,4.395,24.414,14.160,38.086,54.688
1644359654.041,-39.551,27.832,0.977,23.438,38.574
1644359654.045,116.699,36.621,7.812,62.500,32.227
1644359654.032,171.875,31.250,8.301,97.656,21.973
1644359654.036,55.664,27.344,14.648,64.453,14.160
1644359654.040,-20.508,29.785,30.273,64.453,54.688
1644359654.044,84.473,30.762,27.344,89.844,38.086
1644359654.048,171.387,29.297,18.555,121.582,9.766
1644359654.052,92.285,23.926,11.230,82.520,58.594
1644359654.056,-29.785,25.391,21.484,55.664,24.414
1644359654.059,38.086,25.879,20.508,63.477,8.789
1644359654.063,153.320,24.414,7.812,100.586,10.254
1644359654.067,124.023,25.391,12.695,97.656,27.832
1644359654.071,-4.883,27.832,20.996,68.359,31.738
1644359654.075,1.953,28.809,7.324,58.105,6.348
1644359654.092,131.348,28.320,-5.371,82.031,60.059
1644359654.096,147.461,27.344,15.625,89.355,82.031
1644359654.100,26.855,21.973,32.227,46.875,31.738
1644359654.104,-41.992,7.812,21.973,38.086,-1.953
1644359654.108,83.008,18.555,9.277,76.172,17.090
1644359654.112,150.391,33.691,18.066,108.398,4.395
1644359654.116,41.504,28.809,25.879,49.805,20.020
1644359654.119,-47.852,33.691,7.324,20.020,89.844
1644359654.123,62.988,40.039,9.766,34.668,57.617
1644359654.127,157.227,34.668,36.621,72.754,43.945
1644359654.131,92.285,28.809,32.227,55.176,104.004
1644359654.135,-40.527,23.926,17.578,33.203,40.527
1644359654.168,0.488,16.113,15.137,30.762,13.184
1644359654.172,135.742,20.020,32.227,78.613,36.133
1644359654.176,126.465,29.297,35.156,89.844,54.199
1644359654.180,-11.719,26.855,24.414,48.828,43.945
1644359654.184,-28.320,20.020,17.090,33.691,35.645
1644359654.188,106.445,25.391,19.531,52.246,45.898
1644359654.192,129.395,35.156,28.809,64.941,28.320
1644359654.195,10.742,34.180,33.691,21.973,12.207
1644359654.199,-42.480,35.645,33.203,24.414,-9.277
1644359654.203,80.566,33.203,31.250,60.547,0.000
1644359654.207,151.367,32.227,28.320,85.449,30.762
1644359654.211,65.430,34.668,25.879,56.152,61.523
1644359654.172,-53.711,20.020,15.625,34.180,61.035
1644359654.176,28.809,19.531,8.789,42.969,16.602
1644359654.180,153.320,37.598,33.203,82.520,42.480
1644359654.184,90.820,35.645,41.992,41.992,73.730
1644359654.188,-54.199,30.762,29.785,-4.883,1.953
1644359654.192,-20.508,28.809,34.180,7.324,-8.301
1644359654.196,107.910,19.531,32.227,48.828,-6.836
1644359654.199,95.703,16.602,15.625,44.434,-2.441
1644359654.203,-34.668,23.926,23.926,12.695,46.387
1644359654.207,-61.035,21.484,32.227,22.949,18.555
1644359654.211,78.125,20.996,22.949,47.363,3.418
1644359654.215,125.488,17.578,15.137,49.805,13.672
1644359654.230,12.207,18.555,21.484,11.230,54.199
1644359654.234,-62.500,30.273,14.160,9.766,52.246
1644359654.238,57.129,27.832,3.906,34.180,-13.672
1644359654.242,142.090,26.367,21.973,73.242,35.645
1644359654.246,52.246,30.273,34.668,41.504,55.664
1644359654.250,-68.359,29.785,27.832,7.812,-7.812
1644359654.254,5.859,23.438,13.184,9.277,-7.812
1644359654.257,122.559,19.531,13.184,41.504,33.203
1644359654.261,83.984,27.832,21.484,26.855,59.570
1644359654.265,-50.293,31.250,25.879,0.488,30.762
1644359654.269,-34.668,21.484,27.344,14.648,2.441
1644359654.273,96.191,20.020,26.367,62.012,35.645
1644359654.272,102.051,21.484,26.367,70.312,64.453
1644359654.276,-20.020,19.531,33.691,25.879,79.590
1644359654.280,-60.059,24.414,33.203,5.859,55.176
1644359654.284,65.430,30.273,13.184,21.484,19.531
1644359654.288,122.070,26.367,9.766,45.410,-5.371
1644359654.292,18.066,26.367,14.648,23.438,10.742
1644359654.296,-76.660,24.902,18.555,18.066,32.227
1644359654.299,25.391,14.648,24.902,28.809,-4.883
1644359654.303,120.117,22.949,26.367,46.875,17.578
1644359654.307,51.270,30.762,36.621,9.766,22.949
1644359654.311,-74.707,22.461,37.109,-4.883,19.531
1644359654.315,-14.160,21.484,25.391,3.418,20.996
1644359654.315,-14.160,21.484,25.391,3.418,20.996
1644359654.332,113.281,24.902,9.277,40.527,-19.531
1644359654.336,87.891,24.902,11.719,39.551,22.461
1644359654.340,-44.922,21.484,26.367,8.301,54.199
1644359654.344,-47.363,19.531,11.230,5.859,21.484
1644359654.348,87.891,18.555,5.371,35.156,21.484
1644359654.352,108.398,17.578,25.391,54.199,24.414
1644359654.356,-22.949,19.531,33.203,30.273,49.805
1644359654.359,-79.102,20.508,36.133,20.020,9.277
1644359654.363,42.480,17.090,25.879,41.992,-8.789
1644359654.367,98.145,16.602,15.137,73.242,7.812
1644359654.371,7.324,20.020,21.484,7.324,-1.465
1644359654.375,-90.820,22.461,19.531,-34.180,20.508
1644359654.362,5.371,23.926,12.207,-13.184,78.613
1644359654.366,112.793,23.438,17.090,31.250,44.434
1644359654.370,50.293,28.320,24.902,19.043,-41.504
1644359654.374,-78.613,31.250,23.926,-1.953,18.555
1644359654.378,-30.762,28.809,19.531,1.465,51.758
1644359654.382,103.516,35.156,14.160,37.598,-44.922
1644359654.386,98.633,32.715,14.160,36.133,9.766
1644359654.389,-37.598,20.508,10.742,0.000,57.129
1644359654.393,-42.969,26.855,18.066,9.277,15.137
1644359654.397,96.191,22.461,28.809,48.828,46.387
1644359654.401,115.723,21.973,29.785,57.617,30.762
1644359654.405,3.418,33.203,24.902,8.789,32.227
1644359654.407,-69.336,29.785,25.391,2.441,60.547
1644359654.411,41.016,28.809,19.531,20.996,44.922
1644359654.415,115.723,31.250,16.113,47.852,41.504
1644359654.419,26.367,31.738,25.391,11.719,60.059
1644359654.423,-89.844,29.297,21.484,-9.277,69.336
1644359654.427,-20.020,26.367,18.066,6.348,29.785
1644359654.431,100.586,22.461,27.832,43.457,39.062
1644359654.434,66.895,20.020,35.156,23.926,64.941
1644359654.438,-76.172,19.531,41.504,-11.719,0.488
1644359654.442,-64.453,22.461,39.062,-10.742,-25.391
1644359654.446,79.102,30.273,32.227,24.902,32.227
1644359654.450,83.496,29.785,28.809,32.715,82.520
1644359654.498,-42.480,27.344,25.879,1.953,74.219
1644359654.502,-66.895,19.531,14.648,4.883,-15.137
1644359654.506,59.570,16.602,14.648,42.969,48.340
1644359654.510,113.281,23.926,29.297,58.594,66.406
1644359654.514,14.160,21.484,26.367,6.348,14.648
1644359654.518,-73.242,20.020,22.949,-7.324,61.523
1644359654.522,38.086,20.996,35.156,16.113,48.828
1644359654.525,125.000,26.367,34.668,58.594,4.883
1644359654.529,37.598,27.832,20.020,39.551,14.648
1644359654.533,-82.031,19.531,18.555,11.230,41.016
1644359654.537,-10.254,27.344,29.785,3.906,33.691
1644359654.541,110.840,26.855,33.691,39.551,41.016
1644359654.501,78.613,18.066,31.738,22.461,39.551
1644359654.505,-57.617,23.926,34.668,-14.160,23.926
1644359654.509,-51.270,29.785,27.344,-1.465,65.430
1644359654.513,89.355,26.855,21.973,37.109,75.195
1644359654.517,104.980,22.461,23.438,42.969,38.086
1644359654.521,-24.902,20.508,13.184,4.883,11.719
1644359654.525,-80.078,22.461,7.324,-4.395,24.902
1644359654.528,44.922,28.809,15.625,16.602,28.320
1644359654.532,108.887,23.438,31.738,37.598,9.277
1644359654.536,13.184,16.602,38.574,-0.977,75.684
1644359654.540,-83.496,22.949,27.344,-6.836,41.992
1644359654.544,12.207,25.879,29.297,14.648,-12.695
1644359654.557,106.445,24.414,33.203,55.664,9.766
1644359654.561,38.086,16.602,22.461,28.809,21.484
1644359654.565,-80.566,17.090,14.648,-2.441,33.203
1644359654.569,-27.832,24.902,17.090,8.789,-23.926
1644359654.573,95.215,27.344,25.879,44.922,21.484
1644359654.577,84.961,28.320,27.832,31.250,11.230
1644359654.581,-42.480,22.949,33.203,-3.418,23.926
1644359654.584,-54.199,23.926,32.715,8.301,70.312
1644359654.588,81.055,28.809,22.461,39.062,5.371
1644359654.592,107.422,25.391,11.719,48.340,-15.137
1644359654.596,-23.926,25.391,17.578,8.789,-8.301
1644359654.600,-82.520,29.297,35.645,1.465,31.738
1644359654.632,46.875,25.879,36.133,21.484,6.836
1644359654.636,109.863,26.367,32.715,51.758,15.137
1644359654.640,14.160,22.949,38.086,23.438,66.895
1644359654.644,-89.844,19.531,38.086,14.160,83.008
1644359654.648,-0.977,24.414,27.832,19.043,77.637
1644359654.652,110.352,21.973,19.531,39.062,-20.020
1644359654.656,58.594,23.438,16.602,31.250,-52.246
1644359654.659,-74.219,29.785,21.484,5.859,7.812
1644359654.663,-38.086,32.227,28.320,-5.859,73.730
1644359654.667,96.680,30.762,25.391,19.531,70.801
1644359654.671,90.820,25.879,26.367,29.297,19.531
1644359654.675,-42.969,32.227,34.180,1.465,47.363
1644359654.677,-68.359,39.062,28.320,0.488,52.246
1644359654.681,63.965,29.785,22.949,38.086,17.090
1644359654.685,107.910,24.902,18.555,57.617,-14.648
1644359654.689,-3.418,33.691,29.297,6.836,-20.020
1644359654.693,-82.520,29.297,27.344,-4.883,36.621
1644359654.697,39.062,20.020,11.719,23.926,43.457
1644359654.701,126.953,21.484,20.508,66.406,43.945
1644359654.704,43.457,33.203,23.438,24.902,70.312
1644359654.708,-67.383,36.133,23.926,-6.348,81.543
1644359654.712,0.488,29.297,22.949,2.930,11.719
1644359654.716,117.188,25.879,16.602,31.738,-45.898
1644359654.720,89.844,29.297,28.320,25.879,-30.273
1644359654.693,-47.363,34.668,44.434,-10.254,-20.020
1644359654.697,-37.109,30.762,35.645,-17.578,-25.391
1644359654.701,93.750,26.367,21.973,28.809,6.836
1644359654.705,100.586,25.391,19.043,38.086,-4.883
1644359654.709,-27.832,34.180,23.438,-1.465,37.109
1644359654.713,-73.242,30.273,28.809,0.977,94.238
1644359654.717,66.406,19.531,20.996,24.414,64.941
1644359654.720,116.211,28.809,29.785,48.340,-3.418
1644359654.724,0.488,32.227,44.922,13.184,-38.086
1644359654.728,-85.449,26.367,37.598,-16.602,16.602
1644359654.732,17.578,22.461,21.973,-16.113,39.062
1644359654.736,111.328,19.043,16.113,26.855,5.859
1644359654.737,42.480,21.973,31.250,15.137,9.766
1644359654.741,-83.984,23.438,28.320,-5.859,30.762
1644359654.745,-28.320,22.949,12.207,4.395,45.898
1644359654.749,106.445,24.902,32.715,37.598,54.199
1644359654.753,82.031,24.414,39.062,33.203,41.016
1644359654.757,-61.035,25.391,29.785,12.207,53.223
1644359654.761,-60.059,22.461,30.273,9.277,51.758
1644359654.764,79.102,28.809,30.273,31.738,-23.438
1644359654.768,104.004,39.551,23.438,44.922,-18.066
1644359654.772,-16.113,29.785,25.879,8.301,19.043
1644359654.776,-69.824,26.367,30.273,-0.977,29.785
1644359654.780,59.082,26.855,24.414,10.254,-8.301
1644359654.872,125.977,21.973,25.391,34.180,-61.523
1644359654.876,20.020,21.484,33.691,10.254,11.719
1644359654.880,-88.867,24.902,38.086,1.953,67.383
1644359654.884,14.160,26.367,27.344,22.461,54.199
1644359654.888,122.070,19.531,17.090,64.941,27.344
1644359654.892,57.129,29.297,16.113,44.434,28.809
1644359654.896,-73.242,40.039,19.043,-4.883,43.457
1644359654.899,-32.715,28.809,20.996,-13.184,23.926
1644359654.903,100.098,26.367,29.297,30.762,18.066
1644359654.907,98.633,32.715,38.086,26.855,31.738
1644359654.911,-39.551,28.320,39.551,-8.789,94.238
1644359654.915,-57.129,24.902,35.156,-6.836,84.473
1644359654.876,84.473,26.855,37.598,37.109,43.945
1644359654.880,115.234,26.855,27.832,62.500,56.152
1644359654.884,-3.418,22.949,9.766,11.230,54.199
1644359654.888,-80.078,22.949,27.344,-7.812,11.719
1644359654.892,42.480,27.832,47.363,13.672,41.016
1644359654.896,128.906,30.762,42.480,50.781,38.574
1644359654.900,38.086,31.738,40.039,25.879,3.906
1644359654.903,-84.961,31.738,38.574,9.277,8.301
1644359654.907,-3.906,24.414,32.227,19.043,-0.488
1644359654.911,112.305,22.949,28.320,47.852,10.742
1644359654.915,63.965,28.809,19.531,38.574,48.340
1644359654.919,-64.453,27.832,27.344,1.465,38.574
1644359654.881,-38.086,29.297,38.574,-14.648,-5.371
1644359654.885,95.703,30.762,32.715,30.273,21.484
1644359654.889,101.562,25.879,32.227,45.410,21.484
1644359654.893,-30.762,24.414,35.156,4.883,-13.672
1644359654.897,-71.777,29.785,32.227,8.301,45.410
1644359654.901,57.129,25.879,31.250,43.457,80.566
1644359654.905,101.074,25.391,29.785,57.617,46.875
1644359654.908,-8.789,30.762,32.715,16.113,37.109
1644359654.912,-91.309,30.273,33.691,3.906,1.953
1644359654.916,23.926,32.715,18.555,13.672,6.836
1644359654.920,118.164,34.180,19.043,38.574,14.160
1644359654.924,40.527,29.297,24.902,17.578,16.113
1644359654.933,-74.707,28.809,26.855,4.395,48.340
1644359654.937,-4.883,29.785,35.645,17.578,-15.137
1644359654.941,113.281,26.855,35.156,58.105,-24.902
1644359654.945,83.984,18.066,25.879,47.363,-27.832
1644359654.949,-44.434,16.113,23.926,6.836,21.973
1644359654.953,-42.969,23.926,20.508,1.953,37.598
1644359654.957,90.332,28.809,15.137,35.156,0.977
1644359654.960,103.027,31.738,23.926,36.621,15.625
1644359654.964,-31.738,29.297,29.297,-12.207,14.648
1644359654.968,-78.613,26.855,28.320,-8.789,30.762
1644359654.972,51.758,30.273,33.691,24.902,30.273
1644359654.976,111.328,31.738,34.180,56.641,41.016
1644359654.992,6.348,22.461,27.344,22.461,82.520
1644359654.996,-86.914,18.066,31.738,0.488,101.074
1644359655.000,20.020,24.902,26.855,23.438,86.426
1644359655.004,115.234,27.832,15.625,51.270,61.035
1644359655.008,53.223,28.320,23.438,19.043,35.156
1644359655.012,-73.242,26.367,25.879,4.395,51.270
1644359655.016,-25.879,19.043,21.484,19.043,36.621
1644359655.019,107.910,23.438,30.273,54.199,16.602
1644359655.023,89.844,26.855,40.039,40.039,11.719
1644359655.027,-47.852,25.391,42.480,2.930,1.465
1644359655.031,-58.594,23.438,38.086,7.324,11.719
1644359655.035,74.707,25.391,29.297,39.551,-9.766
1644359655.022,104.980,27.344,24.902,59.082,-10.742
1644359655.026,-15.137,21.484,23.438,25.879,37.598
1644359655.030,-84.473,12.207,20.020,13.672,65.430
1644359655.034,41.992,18.555,27.344,24.414,41.992
1644359655.038,123.535,28.809,31.738,46.387,18.555
1644359655.042,25.391,28.809,34.180,19.043,20.508
1644359655.046,-97.656,29.785,42.480,9.277,24.414
1644359655.049,-11.719,26.855,43.945,23.438,43.945
1644359655.053,102.051,25.391,39.062,41.504,42.480
1644359655.057,51.758,24.902,28.809,8.301,33.691
1644359655.061,-79.590,22.949,23.926,-2.441,54.199
1644359655.065,-39.551,26.367,15.625,8.301,74.219
1644359655.067,101.074,33.691,21.484,26.367,94.727
1644359655.071,96.191,28.320,36.621,21.973,77.148
1644359655.075,-38.574,21.973,40.039,-1.953,40.527
1644359655.079,-65.430,20.996,34.180,-2.441,-0.977
1644359655.083,78.613,24.902,29.785,20.996,-19.043
1644359655.087,124.023,24.902,34.668,41.016,-10.254
1644359655.091,10.742,23.438,42.969,4.395,14.160
1644359655.094,-75.195,23.926,35.645,-4.395,61.523
1644359655.098,31.738,21.973,13.672,20.020,57.129
1644359655.102,119.141,27.832,11.719,60.547,39.551
1644359655.106,38.574,27.832,31.250,33.203,22.461
1644359655.110,-79.102,21.973,37.598,5.371,18.555
1644359655.112,-5.371,16.602,26.367,7.812,44.922
1644359655.116,118.164,12.695,26.367,31.738,51.270
1644359655.120,80.566,12.695,30.762,6.348,27.344
1644359655.124,-63.477,26.855,29.297,-16.113,46.387
1644359655.128,-54.199,26.855,17.578,-9.766,98.145
1644359655.132,71.777,18.555,9.766,18.066,29.785
1644359655.136,81.055,23.926,17.090,26.367,19.043
1644359655.139,-38.086,22.949,29.785,-11.719,19.531
1644359655.143,-75.684,26.367,35.645,-9.766,30.762
1644359655.147,59.082,28.320,35.156,28.320,70.801
1644359655.151,107.422,23.926,36.621,56.152,5.371
1644359655.155,2.930,26.855,34.180,17.578,-23.926
1644359655.158,-88.867,24.414,26.367,0.488,40.527
1644359655.162,18.066,24.414,28.320,28.809,71.777
1644359655.166,118.652,27.832,27.832,68.848,11.230
1644359655.170,50.293,25.391,10.254,38.086,37.598
1644359655.174,-70.312,27.344,14.160,5.371,106.445
1644359655.178,-11.719,26.367,36.133,6.348,30.273
1644359655.182,111.328,25.879,41.504,40.039,3.906
1644359655.185,95.215,20.996,32.227,25.879,-8.789
1644359655.189,-30.762,21.973,26.855,10.254,5.859
1644359655.193,-35.156,28.320,30.762,21.484,113.770
1644359655.197,95.703,23.438,27.344,46.387,78.125
1644359655.201,120.117,26.367,27.832,57.617,-21.973
1644359655.217,-6.836,40.039,28.809,16.113,-29.785
1644359655.221,-67.383,34.668,24.414,10.742,1.465
1644359655.225,57.129,15.625,24.902,41.992,71.289
1644359655.229,117.676,18.066,25.391,63.477,53.223
1644359655.233,12.207,30.273,30.762,17.090,35.645
1644359655.237,-97.168,27.832,32.227,-3.418,26.367
1644359655.241,-8.789,21.484,28.320,12.695,6.348
1644359655.244,87.891,22.461,26.367,47.363,25.879
1644359655.248,33.203,19.531,29.297,26.367,-8.301
1644359655.252,-88.867,18.555,31.738,-4.883,-38.086
1644359655.256,-43.457,22.461,29.297,-2.441,10.742
1644359655.260,88.867,23.438,22.949,34.668,47.363
1644359655.278,79.102,28.809,20.508,29.297,57.129
1644359655.282,-49.805,31.250,31.738,-5.859,77.148
1644359655.286,-65.430,23.926,31.738,-8.301,39.062
1644359655.290,74.707,30.762,24.414,23.926,20.020
1644359655.294,114.258,36.621,26.855,46.387,36.621
1644359655.298,-0.488,35.156,32.715,15.137,68.848
1644359655.302,-64.453,34.668,25.879,5.371,21.484
1644359655.305,55.176,33.203,12.695,18.066,-16.602
1644359655.309,128.418,33.203,20.020,51.270,36.621
1644359655.313,36.621,32.227,34.668,25.879,29.785
1644359655.317,-70.312,32.227,24.414,1.953,39.062
1644359655.321,15.625,24.414,5.371,13.672,29.785
1644359655.309,117.188,19.043,10.742,50.293,-11.230
1644359655.313,60.547,22.949,26.367,26.367,-38.086
1644359655.317,-69.824,27.832,30.273,4.395,19.043
1644359655.321,-42.969,24.902,24.414,5.371,67.871
1644359655.325,88.867,24.414,23.926,20.508,65.430
1644359655.329,93.262,27.344,28.320,22.949,25.391
1644359655.333,-36.133,27.832,29.785,-15.137,2.441
1644359655.336,-72.266,25.879,28.809,-20.996,6.836
1644359655.340,59.082,24.414,20.508,13.184,25.879
1644359655.344,105.957,20.020,8.789,40.527,87.891
1644359655.348,-5.859,15.625,18.555,9.277,98.145
1644359655.352,-84.961,13.672,31.738,1.953,56.152
1644359655.368,35.645,16.113,41.992,27.344,-6.836
1644359655.372,127.930,29.785,37.598,58.594,-11.230
1644359655.376,44.434,38.574,31.250,25.879,5.371
1644359655.380,-80.078,35.156,34.180,-2.441,3.418
1644359655.384,-16.602,32.715,24.414,-8.301,-3.418
1644359655.388,102.051,30.762,25.879,34.668,16.602
1644359655.392,75.684,21.484,28.809,35.156,65.430
1644359655.395,-61.523,19.043,23.438,10.254,111.328
1644359655.399,-55.176,22.461,31.738,13.184,87.402
1644359655.403,80.078,25.391,38.086,45.410,25.391
1644359655.407,98.633,28.809,40.527,49.316,-24.902
1644359655.411,-21.973,24.902,43.945,-8.301,-33.691
1644359655.444,-72.266,26.855,33.691,-17.578,49.316
1644359655.448,57.617,35.156,23.438,13.184,82.520
1644359655.452,111.328,32.715,29.297,41.016,55.664
1644359655.456,7.324,22.461,38.574,16.113,-3.418
1644359655.460,-85.938,17.090,39.551,6.348,22.949
1644359655.464,10.742,22.949,36.621,14.648,49.316
1644359655.468,117.188,28.809,25.391,42.969,51.758
1644359655.471,56.152,31.250,24.414,19.043,23.438
1644359655.475,-75.684,20.996,33.691,4.883,19.531
1644359655.479,-25.879,20.020,38.574,14.160,73.730
1644359655.483,95.703,29.297,31.250,48.340,61.035
1644359655.487,72.266,21.484,24.902,46.875,27.344
1644359655.447,-59.082,18.066,32.227,3.906,-6.836
1644359655.451,-66.406,24.414,26.367,12.207,15.625
1644359655.455,81.055,29.297,13.184,44.434,30.762
1644359655.459,116.699,33.203,17.090,46.875,41.016
1644359655.463,-7.812,28.320,27.344,18.066,28.809
1644359655.467,-71.289,21.484,32.227,9.277,30.273
1644359655.471,47.852,21.484,33.691,29.785,47.363
1644359655.474,112.793,21.973,36.133,59.570,14.648
1644359655.478,18.555,20.996,32.715,23.438,3.906
1644359655.482,-86.426,20.996,21.973,11.719,22.461
1644359655.486,0.977,24.414,21.973,24.414,-4.883
1644359655.490,101.074,27.344,23.926,69.824,23.926
1644359655.487,52.734,20.020,28.320,56.641,90.820
1644359655.491,-66.406,12.207,35.156,20.996,83.496
1644359655.495,-28.809,18.555,37.109,20.996,47.363
1644359655.499,97.656,25.391,22.461,44.922,-15.625
1644359655.503,91.309,25.391,11.230,32.227,-55.664
1644359655.507,-39.551,24.902,28.320,-9.277,34.180
1644359655.511,-69.824,19.043,38.574,-10.742,62.500
1644359655.514,70.312,24.414,35.645,24.414,43.945
1644359655.518,111.816,36.621,29.785,40.527,37.598
1644359655.522,-10.254,30.762,28.320,7.324,7.324
1644359655.526,-86.426,18.555,29.297,-10.254,18.066
1644359655.530,31.738,23.438,29.297,-12.695,61.523
1644359655.547,117.676,36.133,30.273,33.203,62.988
1644359655.551,35.156,36.621,32.227,14.648,1.465
1644359655.555,-82.520,31.250,38.086,0.000,30.273
1644359655.559,-5.859,28.809,41.504,13.672,20.996
1644359655.563,111.328,26.367,27.344,47.852,3.418
1644359655.567,73.242,29.785,14.160,26.855,14.648
1644359655.571,-59.082,34.180,17.090,-20.508,17.578
1644359655.574,-43.945,32.715,31.250,-15.625,72.754
1644359655.578,94.238,31.738,47.852,28.809,52.246
1644359655.582,98.633,21.973,45.898,38.086,2.441
1644359655.586,-38.574,11.719,39.551,6.348,19.531
1644359655.590,-79.102,18.555,38.574,0.977,3.906
1644359655.638,60.547,23.438,28.320,12.207,-9.766
1644359655.642,124.023,26.367,20.508,16.602,41.504
1644359655.646,13.672,30.762,15.625,-20.020,68.848
1644359655.650,-85.449,32.227,15.137,-23.926,25.879
1644359655.654,18.555,29.785,25.879,2.930,23.438
1644359655.658,113.770,20.996,37.109,41.016,41.992
1644359655.662,45.898,20.996,41.016,5.371,13.672
1644359655.665,-75.684,26.855,38.086,-29.297,-1.953
1644359655.669,-20.996,26.855,24.414,-12.695,16.113
1644359655.673,105.469,24.414,18.555,38.086,17.578
1644359655.677,90.332,20.996,29.785,30.762,31.738
1644359655.681,-41.504,23.926,26.367,-13.672,29.785
1644359655.642,-41.992,29.785,12.207,-12.695,-1.465
1644359655.646,87.402,31.738,13.672,26.855,-5.859
1644359655.650,103.516,22.461,25.879,40.527,20.996
1644359655.654,-17.578,16.602,37.598,7.812,61.523
1644359655.658,-76.172,21.973,36.621,-4.883,66.406
1644359655.662,45.410,31.250,31.250,18.066,58.594
1644359655.666,108.887,29.785,26.367,53.711,0.000
1644359655.669,15.137,20.996,27.832,21.484,-19.531
1644359655.673,-88.867,23.438,36.133,6.348,21.484
1644359655.677,8.789,19.531,19.043,18.555,37.598
1644359655.681,119.141,24.902,-2.930,54.688,26.367
1644359655.685,59.082,33.691,9.277,34.180,52.734
1644359655.727,-72.266,30.762,26.855,-3.906,-6.836
1644359655.731,-29.297,30.273,29.785,3.418,-21.484
1644359655.735,96.191,24.902,28.809,53.223,48.828
1644359655.739,79.590,21.484,21.973,46.875,51.758
1644359655.743,-46.875,23.926,19.043,5.371,16.602
1644359655.747,-59.082,20.020,26.855,12.207,6.348
1644359655.751,79.590,29.785,22.949,41.992,47.852
1644359655.754,114.746,38.574,19.043,55.664,47.363
1644359655.758,-4.395,37.109,18.066,24.414,7.812
1644359655.762,-80.078,33.203,30.273,22.461,49.805
1644359655.766,37.109,20.020,35.645,36.621,83.008
1644359655.770,112.305,18.066,28.809,63.477,20.020
1644359655.731,20.508,20.996,30.762,39.062,3.906
1644359655.735,-97.656,24.414,31.250,20.996,9.766
1644359655.739,-7.812,27.344,25.391,27.344,16.113
1644359655.743,119.629,27.832,26.855,65.918,37.109
1644359655.747,72.266,32.227,31.250,61.523,44.434
1644359655.751,-63.477,29.785,21.484,32.227,50.293
1644359655.755,-34.668,20.508,18.555,27.832,55.664
1644359655.758,100.098,17.578,27.832,66.895,45.410
1644359655.762,99.121,23.438,37.598,78.125,31.738
1644359655.766,-36.133,31.738,43.457,37.109,27.344
1644359655.770,-66.895,31.250,40.527,33.203,-11.719
1644359655.774,65.918,28.320,32.715,61.035,10.742
1644359655.772,106.445,29.297,22.949,74.219,78.613
1644359655.776,0.000,30.762,28.809,37.109,101.562
1644359655.780,-83.496,27.832,27.832,18.555,32.715
1644359655.784,26.855,18.555,14.648,28.320,35.156
1644359655.788,113.281,21.973,19.043,59.082,29.785
1644359655.792,36.621,27.832,27.832,27.344,-27.344
1644359655.796,-79.590,19.043,33.691,6.348,22.461
1644359655.799,-11.719,26.367,33.203,16.113,32.227
1644359655.803,104.980,35.156,35.645,47.852,3.418
1644359655.807,72.266,28.320,29.785,35.156,14.648
1644359655.811,-57.129,29.297,21.484,0.000,21.484
1644359655.815,-52.734,26.367,30.762,0.977,34.180
1644359655.817,89.355,21.484,29.785,42.969,76.172
1644359655.821,105.469,23.926,28.320,43.945,61.523
1644359655.825,-26.855,26.367,37.598,-1.465,32.227
1644359655.829,-75.195,23.926,41.992,-3.906,26.855
1644359655.833,50.781,26.855,36.621,11.719,28.320
1644359655.837,115.723,32.227,26.855,28.809,80.566
1644359655.841,2.930,23.438,22.949,-23.926,90.332
1644359655.844,-107.422,22.461,30.273,-49.316,42.969
1644359655.848,15.137,36.133,46.387,-13.184,49.316
1644359655.852,111.816,33.203,41.016,25.391,45.410
1644359655.856,34.180,19.043,36.133,-4.395,20.020
1644359655.860,-100.586,25.391,36.133,-39.551,18.555
1644359655.863,-73.730,33.691,23.438,-51.758,24.414
1644359655.867,61.523,18.555,26.367,-7.812,47.363
1644359655.871,50.293,13.184,38.574,-20.020,12.207
1644359655.875,-72.754,28.809,61.035,-53.711,37.109
1644359655.879,-81.543,31.738,54.688,-41.016,78.613
1644359655.883,29.297,12.207,35.645,-15.625,7.324
1644359655.887,46.387,1.953,35.156,-28.320,-7.324
1644359655.890,-99.609,20.020,28.809,-114.258,12.695
1644359655.894,-169.434,21.973,55.176,-117.676,23.926
1644359655.898,-31.250,18.555,67.383,-65.430,33.691
1644359655.902,25.879,25.391,46.875,-50.293,20.996
1644359655.906,-88.379,15.137,44.922,-114.746,0.000
1644359656.042,-224.121,12.695,40.527,-168.945,-4.395
1644359656.046,-163.086,31.250,23.438,-176.758,5.859
1644359656.050,-43.945,46.387,31.250,-117.188,20.996
1644359656.054,-73.242,61.523,56.641,-106.934,32.715
1644359656.058,-216.797,64.453,47.852,-147.461,49.316
1644359656.062,-201.172,62.988,42.480,-147.949,59.570
1644359656.066,-61.523,71.777,45.898,-97.168,33.691
1644359656.069,-50.293,81.543,35.156,-94.238,3.418
1644359656.073,-175.293,85.449,46.875,-140.137,6.348
1644359656.077,-204.590,87.891,50.781,-152.344,41.504
1644359656.081,-67.871,93.750,17.578,-119.141,64.941
1644359656.085,-15.137,98.145,11.719,-81.055,74.219
1644359656.046,-110.352,96.680,29.297,-95.215,31.738
1644359656.050,-162.109,89.844,32.715,-80.566,15.137
1644359656.054,-30.762,88.379,31.738,-30.762,75.195
1644359656.058,72.266,93.262,23.926,20.996,63.965
1644359656.062,11.719,80.566,6.348,-11.230,9.277
1644359656.066,-95.703,62.988,4.395,-26.367,25.879
1644359656.070,-19.043,45.410,-0.977,0.488,62.012
1644359656.073,111.816,47.363,4.883,49.805,46.875
1644359656.077,95.703,66.895,25.879,52.246,4.395
1644359656.081,-36.621,54.688,20.020,29.297,-7.812
1644359656.085,-11.719,45.410,6.836,46.387,-15.137
1644359656.089,138.184,44.922,10.254,101.562,-10.742
1644359656.051,147.949,44.922,14.160,124.023,51.270
1644359656.055,19.531,38.574,16.602,97.656,58.105
1644359656.059,-12.207,20.020,30.273,85.449,8.301
1644359656.063,128.418,17.578,17.578,102.539,12.695
1644359656.067,190.430,23.926,8.301,138.672,38.574
1644359656.071,80.566,20.508,24.902,100.098,3.906
1644359656.075,-9.277,24.902,38.574,82.031,5.859
1644359656.078,100.586,22.949,29.785,102.539,68.359
1644359656.082,190.430,19.043,16.113,135.254,46.387
1644359656.086,114.746,18.555,16.602,118.164,12.695
1644359656.090,-15.625,7.812,19.531,94.238,36.133
1644359656.094,47.852,11.230,22.461,102.051,5.859
1644359656.089,170.410,15.137,16.602,131.348,11.719
1644359656.093,143.066,12.207,12.695,122.559,23.926
1644359656.097,20.508,19.043,24.414,107.422,36.621
1644359656.101,9.277,13.184,32.715,103.516,-8.789
1644359656.105,139.160,11.230,25.879,126.465,-6.348
1644359656.109,164.062,22.949,15.625,121.094,78.125
1644359656.113,38.086,18.066,24.902,62.500,20.020
1644359656.116,-11.719,10.254,29.785,53.223,-15.137
1644359656.120,104.980,16.113,24.414,91.309,9.277
1644359656.124,158.691,11.719,12.207,115.723,27.832
1644359656.128,75.195,16.113,10.254,67.871,93.750
1644359656.132,-25.391,28.320,33.691,50.293,103.516
1644359656.094,54.688,20.020,35.645,50.781,46.875
1644359656.098,159.668,10.254,25.391,75.195,44.922
1644359656.102,102.539,8.301,22.949,51.270,29.297
1644359656.106,-35.156,8.301,27.344,22.949,-14.648
1644359656.110,8.301,13.184,26.367,21.484,31.250
1644359656.114,139.648,14.160,26.367,46.875,-3.906
1644359656.118,125.000,6.836,28.320,42.969,-44.434
1644359656.121,-3.906,12.207,34.180,7.812,-20.996
1644359656.125,-24.414,14.160,34.180,-6.836,47.363
1644359656.129,111.816,6.836,22.461,23.438,99.121
1644359656.133,146.484,11.230,16.113,47.852,72.266
1644359656.137,20.020,18.555,16.113,3.906,1.465
1644359656.147,-52.246,17.578,28.320,-1.953,-4.883
1644359656.151,71.777,18.066,34.668,26.367,55.176
1644359656.155,150.391,20.020,33.691,61.523,39.551
1644359656.159,62.012,24.414,46.387,34.668,72.266
1644359656.163,-56.641,14.160,49.805,0.488,137.207
1644359656.167,23.926,1.953,35.645,4.883,68.848
1644359656.171,144.043,16.113,30.273,36.133,7.812
1644359656.174,93.750,31.738,15.625,16.602,35.645
1644359656.178,-45.410,30.273,10.742,-8.301,29.785
1644359656.182,-21.484,21.973,21.973,-17.090,42.480
1644359656.186,120.117,22.461,22.949,17.578,45.410
1644359656.190,121.582,24.902,29.297,14.160,-3.418
1644359656.192,-19.043,19.043,31.738,-30.762,26.367
1644359656.196,-51.270,15.625,23.438,-20.020,40.039
1644359656.200,83.496,21.973,18.066,20.996,-30.273
1644359656.204,125.977,23.438,19.043,45.898,14.160
1644359656.208,21.484,17.090,18.555,18.066,85.938
1644359656.212,-59.570,14.648,36.133,13.672,46.875
1644359656.216,44.922,19.531,31.250,36.133,9.766
1644359656.219,135.742,20.508,10.742,69.824,46.875
1644359656.223,62.988,20.508,19.531,29.785,29.297
1644359656.227,-56.152,33.203,33.691,4.395,40.527
1644359656.231,4.395,41.992,35.645,19.531,65.430
1644359656.235,123.047,38.086,37.598,63.965,9.766
1644359656.237,98.633,32.227,37.109,58.105,32.227
1644359656.241,-36.621,21.484,28.809,15.625,90.332
1644359656.245,-37.598,16.113,26.855,-2.441,96.680
1644359656.249,89.355,23.926,29.297,31.250,8.789
1644359656.253,100.586,22.949,27.832,47.852,-59.082
1644359656.257,-23.926,18.066,12.207,19.043,-9.277
1644359656.261,-72.754,21.484,14.160,22.461,18.555
1644359656.264,49.805,21.484,38.086,27.832,15.137
1644359656.268,104.492,23.438,41.992,51.758,17.090
1644359656.272,3.906,25.391,34.668,26.855,35.645
1644359656.276,-86.914,18.555,26.855,7.812,27.832
1644359656.280,18.555,17.578,20.996,32.715,40.527
1644359656.298,114.258,17.578,22.949,71.289,22.949
1644359656.302,44.434,10.254,31.738,55.176,19.531
1644359656.306,-78.613,11.719,35.156,41.504,16.602
1644359656.310,-29.297,25.391,26.855,42.480,-22.949
1644359656.314,97.168,28.320,24.902,76.660,24.414
1644359656.318,79.590,24.902,23.438,67.871,43.945
1644359656.322,-51.758,26.855,17.090,22.461,22.949
1644359656.325,-57.129,22.949,20.996,32.715,-10.742
1644359656.329,73.242,18.555,26.367,80.078,-6.836
1644359656.333,98.145,17.578,25.879,104.980,88.379
1644359656.337,-19.531,19.043,30.762,63.477,103.516
1644359656.341,-79.590,15.137,34.180,40.527,35.156
1644359656.403,48.340,14.160,25.879,68.359,65.918
1644359656.407,113.770,28.320,22.461,104.004,80.566
1644359656.411,14.160,32.227,28.809,76.172,23.926
1644359656.415,-78.613,29.297,39.062,50.781,34.180
1644359656.419,15.625,26.855,35.156,44.434,24.414
1644359656.423,123.535,26.367,24.902,83.984,45.410
1644359656.427,73.242,27.832,20.508,73.242,73.730
1644359656.430,-62.500,26.855,14.648,33.203,-5.859
1644359656.434,-25.391,30.762,23.438,36.621,1.465
1644359656.438,104.980,29.297,36.621,74.707,9.766
1644359656.442,91.309,19.043,44.434,44.434,4.395
1644359656.446,-37.598,16.113,48.828,-6.836,63.477
1644359656.407,-72.754,20.020,43.457,-11.719,46.387
1644359656.411,50.293,16.113,33.691,0.977,26.855
1644359656.415,90.332,20.020,33.203,17.578,37.598
1644359656.419,-24.414,23.438,19.043,-15.137,33.203
1644359656.423,-97.168,13.184,3.906,-30.273,66.895
1644359656.427,21.484,14.160,25.391,-20.996,58.105
1644359656.431,97.656,24.414,46.875,-4.883,-5.859
1644359656.434,16.602,23.926,54.688,-38.086,-17.578
1644359656.438,-93.262,19.531,48.340,-55.176,1.465
1644359656.442,-20.020,20.996,34.180,-45.898,-52.734
1644359656.446,99.609,20.020,29.785,-8.301,-58.105
1644359656.450,66.895,21.973,26.855,-25.391,-8.789
1644359656.447,-68.848,24.902,24.902,-56.641,13.672
1644359656.451,-49.805,24.414,16.602,-54.199,31.250
1644359656.455,93.262,30.762,6.836,-21.973,14.648
1644359656.459,100.586,30.762,18.555,-21.973,-4.883
1644359656.463,-28.320,23.926,28.809,-68.359,-27.832
1644359656.467,-62.012,22.949,26.855,-65.918,12.695
1644359656.471,72.754,20.996,31.250,-31.250,44.434
1644359656.474,117.676,26.855,23.438,-19.531,28.320
1644359656.478,3.906,29.785,13.184,-63.965,74.219
1644359656.482,-85.938,27.344,20.020,-81.543,58.105
1644359656.486,23.926,20.996,35.156,-65.918,2.441
1644359656.490,119.629,12.695,42.969,-20.020,45.410
1644359656.477,44.434,15.137,36.621,-50.293,14.160
1644359656.481,-83.984,23.438,32.227,-81.055,41.016
1644359656.485,-18.555,24.414,28.320,-67.871,71.289
1644359656.489,108.887,26.367,21.973,-23.438,13.672
1644359656.493,83.984,26.367,13.184,-32.227,-24.414
1644359656.497,-44.434,23.926,17.090,-68.848,-0.488
1644359656.501,-48.340,28.809,28.809,-59.570,41.992
1644359656.504,86.914,33.203,19.531,-30.762,9.277
1644359656.508,114.746,39.062,16.602,-37.109,13.184
1644359656.512,-9.766,35.645,26.855,-83.984,17.090
1644359656.516,-63.477,23.926,32.715,-94.238,22.461
1644359656.520,68.848,20.508,32.715,-74.219,17.090
1644359656.537,131.348,19.531,32.715,-38.086,-0.977
1644359656.541,31.738,24.414,35.156,-40.527,6.836
1644359656.545,-73.242,25.391,30.762,-31.738,-30.762
1644359656.549,17.578,24.414,18.066,-11.230,15.625
1644359656.553,122.070,31.250,30.273,39.551,10.254
1644359656.557,58.594,34.180,51.758,27.344,-56.641
1644359656.561,-68.848,28.320,41.016,8.789,-2.441
1644359656.564,-26.367,18.066,31.250,21.484,70.312
1644359656.568,95.703,17.578,29.297,62.012,19.531
1644359656.572,82.520,23.926,24.414,86.426,34.180
1644359656.576,-51.758,22.949,34.668,76.660,49.316
1644359656.580,-65.430,20.508,33.691,82.031,19.043
1644359656.567,72.754,26.855,23.438,118.164,53.711
1644359656.571,104.980,33.691,25.879,139.160,42.969
1644359656.575,-6.348,32.227,27.344,101.074,51.270
1644359656.579,-74.707,21.484,27.344,103.027,-24.414
1644359656.583,43.457,19.531,27.832,151.855,1.465
1644359656.587,121.582,18.066,26.367,206.543,20.996
1644359656.591,35.156,11.719,26.367,193.848,19.531
1644359656.594,-77.148,17.578,24.414,194.824,27.832
1644359656.598,4.883,24.414,14.160,231.445,-7.812
1644359656.602,120.605,29.297,22.949,317.383,41.992
1644359656.606,81.055,34.180,31.738,376.465,68.848
1644359656.610,-46.875,23.926,26.855,344.238,91.309
1644359656.642,-20.508,22.461,24.902,263.672,62.988
1644359656.646,104.492,28.809,25.879,257.324,44.922
1644359656.650,95.703,26.855,21.484,241.699,53.711
1644359656.654,-30.762,31.250,28.809,182.617,-4.395
1644359656.658,-66.406,32.715,37.598,150.391,9.766
1644359656.662,56.641,35.156,31.250,128.906,62.012
1644359656.666,104.980,33.203,21.484,96.191,34.668
1644359656.669,0.488,28.320,21.973,27.832,19.043
1644359656.673,-83.496,29.297,25.879,-3.418,9.766
1644359656.677,27.832,26.855,20.508,3.418,21.973
1644359656.681,118.652,27.832,24.414,42.480,50.293
1644359656.685,46.875,29.297,37.598,5.859,28.809
1644359656.673,-72.266,20.020,29.297,-20.996,60.059
1644359656.677,-5.371,17.578,16.602,-5.859,112.793
1644359656.681,116.211,33.691,30.762,22.949,115.723
1644359656.685,79.102,40.527,36.133,11.719,71.777
1644359656.689,-56.152,29.297,29.297,-10.742,47.363
1644359656.693,-48.340,23.926,27.832,-3.418,87.402
1644359656.697,86.426,30.762,29.785,20.020,24.414
1644359656.700,97.168,29.785,19.531,14.160,13.672
1644359656.704,-26.855,20.508,20.508,-21.973,11.719
1644359656.708,-68.848,23.926,37.598,-24.902,-25.879
1644359656.712,56.641,23.438,41.504,-0.977,-3.418
1644359656.716,112.793,18.066,47.852,19.043,6.836
1644359656.747,5.859,27.344,40.039,-34.180,11.719
1644359656.751,-92.773,32.715,33.691,-69.336,46.387
1644359656.755,3.906,29.785,37.109,-62.988,27.832
1644359656.759,104.980,29.785,29.785,-20.996,-1.465
1644359656.763,48.340,25.391,26.855,-40.527,38.574
1644359656.767,-83.008,25.879,32.715,-70.312,66.895
1644359656.771,-24.902,27.344,30.273,-65.430,38.574
1644359656.774,105.469,26.855,25.879,-30.273,19.043
1644359656.778,78.613,25.391,41.992,-39.062,47.363
1644359656.782,-52.734,21.484,41.504,-73.730,56.641
1644359656.786,-60.547,24.902,24.414,-82.520,45.898
1644359656.790,73.242,32.715,21.484,-64.941,1.953
1644359656.751,103.516,29.297,28.809,-52.246,20.508
1644359656.755,-20.508,20.020,30.762,-88.867,22.949
1644359656.759,-85.938,19.531,30.273,-89.355,16.602
1644359656.763,40.039,23.438,23.926,-55.664,29.297
1644359656.767,110.352,26.367,7.324,-28.809,-26.367
1644359656.771,11.230,23.926,5.859,-72.266,14.160
1644359656.775,-97.656,21.973,30.273,-94.727,36.133
1644359656.778,4.395,28.320,41.504,-86.426,-2.930
1644359656.782,108.887,29.297,25.879,-48.828,-10.254
1644359656.786,46.875,28.320,21.973,-64.453,-0.977
1644359656.790,-83.984,27.344,27.344,-95.703,-21.484
1644359656.794,-46.875,16.113,27.344,-90.820,-41.504
1644359656.810,85.938,14.648,20.508,-55.176,-15.625
1644359656.814,78.613,25.391,17.090,-58.594,21.973
1644359656.818,-52.246,30.762,26.367,-116.211,2.441
1644359656.822,-69.336,35.645,23.926,-144.043,-1.953
1644359656.826,67.871,27.344,17.578,-118.652,29.785
1644359656.830,103.027,20.508,27.344,-119.141,17.090
1644359656.834,-13.184,28.320,26.367,-164.551,18.555
1644359656.837,-86.426,24.414,25.391,-157.227,29.785
1644359656.841,32.227,25.879,24.414,-114.746,34.180
1644359656.845,116.699,26.855,12.695,-58.594,-14.648
1644359656.849,34.668,29.297,26.367,-67.383,35.156
1644359656.853,-83.008,30.273,39.551,-59.082,13.184
1644359656.884,-5.859,22.949,35.156,-28.809,-64.941
1644359656.888,117.188,23.438,29.297,34.668,-47.363
1644359656.892,79.590,26.367,28.809,47.852,-39.551
1644359656.896,-58.594,26.367,35.645,27.344,-12.695
1644359656.900,-42.969,26.367,22.949,43.945,-1.953
1644359656.904,91.309,29.297,14.648,95.703,40.527
1644359656.908,97.656,30.273,24.902,115.234,20.996
1644359656.911,-29.297,29.785,27.832,90.332,-2.930
1644359656.915,-73.730,28.809,29.297,81.055,62.500
1644359656.919,58.594,25.391,35.156,116.699,50.781
1644359656.923,119.629,27.832,37.109,157.715,25.879
1644359656.927,10.254,25.879,29.297,130.371,72.754
1644359656.899,-83.008,29.297,21.484,134.766,83.496
1644359656.903,20.508,29.785,20.020,168.457,-1.953
1644359656.907,111.816,28.809,22.461,226.562,7.812
1644359656.911,47.363,34.668,20.020,220.703,66.895
1644359656.915,-74.707,33.691,21.484,231.445,89.844
1644359656.919,-11.230,30.762,21.973,297.363,77.637
1644359656.923,114.258,29.785,21.484,376.465,69.336
1644359656.926,85.938,22.461,18.066,365.234,83.008
1644359656.930,-53.711,21.973,24.414,295.898,43.457
1644359656.934,-56.152,26.367,32.715,262.695,8.301
1644359656.938,85.938,25.391,31.250,273.438,69.824
1644359656.942,105.469,25.391,26.367,241.211,66.406
1644359656.957,-21.484,33.203,37.598,162.598,26.855
1644359656.961,-71.777,37.109,44.434,100.586,73.242
1644359656.965,53.711,33.203,27.832,71.777,63.965
1644359656.969,108.887,28.809,28.809,88.867,105.469
1644359656.973,11.230,31.250,37.598,38.086,113.770
1644359656.977,-90.332,31.738,27.832,3.906,68.848
1644359656.981,0.977,21.484,17.090,0.977,79.102
1644359656.984,110.840,27.344,11.719,7.324,95.215
1644359656.988,58.105,33.691,18.555,-21.973,49.316
1644359656.992,-71.777,36.621,25.879,-35.156,53.711
1644359656.996,-27.832,38.574,34.180,-24.414,32.227
1644359657.000,103.516,32.227,45.410,10.742,-5.859
1644359657.002,91.309,28.320,36.133,7.812,51.758
1644359657.006,-47.363,30.273,35.156,-16.602,57.129
1644359657.010,-61.035,29.785,37.109,-10.254,43.945
1644359657.014,83.496,30.273,19.531,5.371,44.922
1644359657.018,118.652,33.203,12.207,-9.766,46.387
1644359657.022,1.953,31.250,23.438,-50.781,67.871
1644359657.026,-67.871,30.762,31.250,-51.270,2.930
1644359657.029,46.387,27.344,25.391,-39.551,0.488
1644359657.033,118.652,24.902,24.902,-9.766,-2.930
1644359657.037,30.273,26.367,39.551,-37.109,-4.883
1644359657.041,-83.984,25.391,38.086,-56.152,28.809
1644359657.045,-1.953,28.320,19.531,-44.922,-16.113
1644359657.033,113.770,37.598,12.207,-0.977,29.297
1644359657.037,68.359,27.344,30.762,-16.113,60.059
1644359657.041,-65.918,20.020,33.691,-56.641,4.395
1644359657.045,-36.133,21.973,30.273,-66.406,52.246
1644359657.049,103.027,25.391,34.668,-24.902,22.461
1644359657.053,98.633,36.133,35.156,-12.207,-9.277
1644359657.057,-38.086,36.133,37.109,-49.316,27.344
1644359657.060,-67.383,25.879,26.855,-56.641,28.809
1644359657.064,65.918,29.297,17.090,-35.156,37.109
1644359657.068,104.492,30.762,33.203,-17.578,26.855
1644359657.072,-7.812,29.297,38.574,-63.477,-3.906
1644359657.076,-88.379,32.227,22.949,-75.195,3.418
1644359657.093,23.438,24.414,24.902,-49.805,46.387
1644359657.097,112.305,26.367,30.762,-14.648,31.250
1644359657.101,34.668,32.227,33.691,-37.109,-21.484
1644359657.105,-84.961,31.250,36.621,-60.059,-15.137
1644359657.109,-17.578,23.926,25.879,-46.875,19.531
1644359657.113,98.633,22.949,22.949,-2.930,81.055
1644359657.117,66.406,32.715,35.156,-20.996,39.551
1644359657.120,-72.754,32.227,40.527,-51.758,-21.973
1644359657.124,-66.895,29.785,24.902,-36.133,60.547
1644359657.128,74.219,26.367,13.184,8.301,42.969
1644359657.132,83.496,29.785,20.020,5.859,8.301
1644359657.136,-39.062,23.926,30.273,-37.109,35.156
1644359657.137,-77.148,10.742,27.832,-29.785,13.672
1644359657.141,52.246,25.391,25.391,-2.930,4.883
1644359657.145,105.957,37.598,34.668,30.273,-19.043
1644359657.149,-0.977,32.715,40.527,0.488,29.297
1644359657.153,-87.891,27.832,37.598,-16.113,66.895
1644359657.157,20.996,29.297,28.320,-1.953,35.156
1644359657.161,118.652,28.809,27.344,30.273,13.672
1644359657.164,50.781,27.832,38.574,8.301,9.277
1644359657.168,-71.777,29.297,35.645,-12.207,19.531
1644359657.172,-18.066,21.484,17.578,-5.371,38.574
1644359657.176,103.027,26.367,18.555,38.574,-7.324
1644359657.180,81.543,40.039,35.645,49.316,-19.531
1644359657.227,-51.270,36.133,47.363,21.484,19.043
1644359657.231,-56.152,26.367,43.457,20.020,20.996
1644359657.235,87.402,18.555,28.809,51.270,-9.277
1644359657.239,121.094,23.438,18.555,70.312,-36.133
1644359657.243,1.465,36.133,20.020,38.574,-20.508
1644359657.247,-66.895,34.180,27.832,33.203,26.855
1644359657.251,52.246,23.926,21.484,48.828,8.301
1644359657.254,121.094,25.391,26.855,76.172,1.953
1644359657.258,27.832,28.809,39.062,39.062,59.570
1644359657.262,-82.031,25.391,32.715,5.859,69.336
1644359657.266,3.418,23.926,27.344,13.672,34.180
1644359657.270,111.328,17.090,34.668,47.852,8.789
1644359657.231,55.664,20.020,22.949,38.086,-33.203
1644359657.235,-71.777,30.273,4.883,25.391,9.766
1644359657.239,-33.203,21.973,23.926,21.484,37.109
1644359657.243,98.633,15.625,41.504,58.594,23.926
1644359657.247,90.332,24.414,40.527,57.129,72.266
1644359657.251,-40.039,33.691,44.922,12.695,63.965
1644359657.255,-62.988,31.250,42.480,6.836,75.684
1644359657.258,70.801,25.391,37.598,29.785,85.938
1644359657.262,109.375,25.391,29.297,45.410,45.410
1644359657.266,-10.254,29.297,21.484,8.301,41.016
1644359657.270,-87.891,21.484,20.996,0.488,34.180
1644359657.274,26.367,14.160,25.391,21.973,16.602
1644359657.272,109.375,15.625,34.668,48.828,9.766
1644359657.276,33.203,26.855,36.621,1.953,10.742
1644359657.280,-79.102,37.598,38.086,-34.180,11.230
1644359657.284,-3.906,29.297,38.574,-20.996,37.109
1644359657.288,113.281,26.367,35.156,23.926,23.438
1644359657.292,72.754,33.691,20.508,5.859,-19.531
1644359657.296,-59.082,31.250,26.367,-21.973,33.203
1644359657.299,-33.691,26.855,33.203,-19.531,45.410
1644359657.303,100.098,25.879,17.090,9.277,36.621
1644359657.307,104.980,30.762,20.508,16.113,43.457
1644359657.311,-28.809,34.180,32.715,-11.719,8.789
1644359657.315,-72.754,27.344,39.551,-10.254,-13.184
1644359657.318,63.965,25.391,37.109,14.648,3.906
1644359657.322,118.652,28.809,29.785,34.668,-24.414
1644359657.326,4.395,29.785,33.691,-2.930,28.320
1644359657.330,-88.379,21.484,43.457,-18.555,53.223
1644359657.334,22.949,25.879,25.391,-4.883,33.203
1644359657.338,113.770,27.832,20.996,33.691,64.453
1644359657.342,42.480,19.043,36.621,22.461,27.344
1644359657.345,-77.637,20.508,38.574,7.812,31.250
1644359657.349,-13.184,20.508,33.203,20.508,44.922
1644359657.353,115.723,25.391,28.320,54.199,12.695
1644359657.357,83.496,35.645,34.668,28.320,-0.488
1644359657.361,-54.199,39.062,46.875,-0.977,25.391
1644359657.452,-51.758,33.691,47.363,6.348,23.438
1644359657.456,77.637,29.785,34.668,33.691,11.719
1644359657.460,92.285,24.414,29.297,37.598,8.301
1644359657.464,-20.020,25.879,33.691,3.906,8.789
1644359657.468,-68.848,27.344,39.551,11.719,65.918
1644359657.472,56.152,29.785,36.621,38.086,54.688
1644359657.476,124.023,37.109,27.344,70.312,31.250
1644359657.479,27.832,38.086,31.738,38.574,41.016
1644359657.483,-76.172,29.297,42.480,16.602,12.695
1644359657.487,10.742,20.020,31.250,37.598,4.395
1644359657.491,112.305,26.367,27.344,77.637,26.367
1644359657.495,56.641,32.715,30.762,55.176,15.625
1644359657.456,-73.242,31.250,27.344,18.066,33.203
1644359657.460,-27.344,28.320,29.297,6.348,64.941
1644359657.464,104.980,25.391,25.391,49.805,38.574
1644359657.468,87.891,25.879,30.273,57.617,37.109
1644359657.472,-46.387,27.344,45.410,33.203,19.531
1644359657.476,-64.453,27.344,48.340,32.715,21.484
1644359657.480,77.148,27.832,41.504,51.758,43.945
1644359657.483,115.234,29.297,35.156,60.059,4.883
1644359657.487,-5.371,29.297,28.809,22.949,34.180
1644359657.491,-82.031,24.902,21.973,28.809,37.598
1644359657.495,37.598,20.996,13.184,56.152,60.059
1644359657.499,121.094,20.996,10.254,53.711,45.410
1644359657.461,36.133,20.996,21.484,9.766,-12.207
1644359657.465,-73.730,19.043,44.922,6.836,-4.395
1644359657.469,3.906,24.902,47.363,20.996,37.598
1644359657.473,112.793,31.250,34.668,61.523,72.266
1644359657.477,64.453,29.297,28.320,50.781,5.371
1644359657.481,-69.336,21.973,23.926,23.926,-14.160
1644359657.485,-42.969,21.484,22.949,29.785,66.895
1644359657.488,91.309,25.391,14.160,61.035,95.703
1644359657.492,90.332,27.832,8.301,58.594,49.316
1644359657.496,-41.016,25.391,31.250,20.508,7.812
1644359657.500,-69.336,22.949,44.922,13.672,20.508
1644359657.504,62.988,21.484,34.668,47.363,33.203
1644359657.527,110.840,16.602,25.879,69.824,41.504
1644359657.531,1.953,21.973,29.297,35.645,92.285
1644359657.535,-79.590,27.344,28.320,24.414,99.121
1644359657.539,32.227,30.762,23.438,38.574,94.727
1644359657.543,117.188,34.668,19.531,74.219,67.871
1644359657.547,44.922,33.691,19.043,39.062,35.645
1644359657.551,-71.777,30.762,32.227,8.789,50.293
1644359657.554,-6.836,28.809,41.992,27.344,40.039
1644359657.558,112.305,25.391,42.969,77.148,46.387
1644359657.562,74.707,29.785,39.551,71.289,72.266
1644359657.566,-53.223,27.344,35.156,48.828,52.246
1644359657.570,-28.320,22.461,28.320,56.641,44.434
1644359657.557,102.051,21.973,25.391,81.055,0.000
1644359657.561,102.051,26.855,29.785,80.566,-6.836
1644359657.565,-19.531,33.203,28.320,46.875,-11.230
1644359657.569,-61.523,35.645,19.043,32.715,-18.555
1644359657.573,62.988,32.715,20.020,35.645,43.457
1644359657.577,113.281,30.273,20.508,47.852,39.062
1644359657.581,-4.883,26.855,21.484,14.160,-1.953
1644359657.584,-98.633,22.461,35.156,1.465,37.109
1644359657.588,15.137,20.020,41.992,12.695,64.453
1644359657.592,113.281,19.531,37.109,32.715,61.035
1644359657.596,42.969,27.344,34.180,1.465,47.363
1644359657.600,-87.402,28.320,37.598,-14.160,-23.926
1644359657.602,-29.297,23.438,38.574,-7.324,8.789
1644359657.606,96.191,19.043,34.668,23.926,3.418
1644359657.610,65.430,23.438,31.738,17.578,-17.578
1644359657.614,-69.824,24.414,34.668,-24.902,28.320
1644359657.618,-73.730,19.043,32.227,-33.203,43.945
1644359657.622,63.477,21.973,24.414,-5.371,-13.672
1644359657.626,100.586,20.020,21.973,5.371,-1.953
1644359657.629,-12.207,27.832,36.133,-26.855,59.082
1644359657.633,-77.637,34.668,44.434,-29.785,49.316
1644359657.637,42.969,33.203,33.203,1.953,28.320
1644359657.641,113.770,30.273,25.879,39.551,39.551
1644359657.645,23.926,28.320,30.273,9.277,-21.973
1644359657.647,-73.730,36.133,29.785,-2.930,1.953
1644359657.651,14.160,36.133,26.855,13.184,38.086
1644359657.655,114.746,36.133,29.297,61.523,98.633
1644359657.659,61.035,36.621,30.273,39.062,116.211
1644359657.663,-71.777,26.855,37.109,2.441,17.090
1644359657.667,-35.156,27.344,42.480,6.836,32.715
1644359657.671,95.703,31.250,23.926,40.039,46.875
1644359657.674,82.520,13.672,13.672,42.969,21.973
1644359657.678,-47.363,18.555,31.250,7.812,-16.113
1644359657.682,-68.359,32.227,36.621,-2.441,-30.762
1644359657.686,66.406,32.715,31.738,16.113,36.133
1644359657.690,108.398,40.527,29.785,41.016,72.754
1644359657.692,-0.977,36.621,34.668,9.766,20.508
1644359657.696,-71.289,32.227,37.109,0.977,8.301
1644359657.700,43.457,27.344,34.180,27.344,37.109
1644359657.704,123.535,24.414,35.156,63.477,82.520
1644359657.708,30.762,24.902,27.832,32.227,47.363
1644359657.712,-95.703,15.137,26.367,3.906,10.254
1644359657.716,-13.672,10.742,38.086,10.742,38.086
1644359657.719,100.586,17.578,43.945,48.340,13.184
1644359657.723,49.316,23.438,43.945,27.832,23.438
1644359657.727,-81.055,21.484,33.203,-5.371,66.406
1644359657.731,-60.059,14.648,30.273,-1.465,-30.273
1644359657.735,74.219,13.184,32.715,28.320,-26.367
1644359657.767,73.730,10.742,34.668,23.438,74.707
1644359657.771,-62.988,13.672,35.645,-22.461,99.609
1644359657.775,-115.234,1.953,23.926,-44.922,50.293
1644359657.779,-34.180,60.547,19.043,-57.129,65.918
1644359657.783,44.434,121.582,39.551,-16.602,54.688
1644359657.787,16.602,52.246,75.195,9.766,-2.930
1644359657.791,-62.988,-3.906,69.336,-1.465,49.316
1644359657.794,17.090,-3.418,58.594,-20.020,77.637
1644359657.798,-26.855,60.547,40.039,-110.840,87.891
1644359657.802,-125.488,91.797,91.309,-151.855,32.227
1644359657.806,-83.496,28.809,125.977,-5.859,5.859
1644359657.810,-28.320,3.418,50.781,4.883,39.551
1644359657.783,-10.254,47.852,28.320,-57.617,30.273
1644359657.787,-97.656,103.027,48.828,-113.770,35.645
1644359657.791,-270.996,182.129,104.492,-185.059,42.969
1644359657.795,-298.340,288.086,204.590,-204.102,51.758
1644359657.799,-182.129,428.223,350.098,-196.289,75.195
1644359657.803,-173.340,606.934,524.902,-220.703,7.324
1644359657.807,-313.965,850.586,774.414,-272.461,9.766
1644359657.810,-375.977,-999.512,977.051,-304.199,47.852
1644359657.814,-241.211,995.605,-1000.000,-280.273,5.371
1644359657.818,-186.523,996.582,994.629,-252.930,11.230
1644359657.822,-288.574,-999.512,-999.512,-297.363,-20.996
1644359657.826,-376.465,999.512,999.512,-302.734,-54.199
1644359657.857,-271.973,999.512,999.512,-274.902,-18.555
1644359657.861,-149.902,999.512,999.512,-210.938,23.438
1644359657.865,-158.691,999.512,999.512,-190.918,20.508
1644359657.869,-252.930,999.512,999.512,-189.941,47.852
1644359657.873,-194.824,999.512,-1000.000,-166.016,36.621
1644359657.877,-53.711,999.512,993.652,-122.070,-3.906
1644359657.881,-51.270,999.512,-996.582,-117.188,-32.227
1644359657.884,-149.414,-999.512,957.031,-127.930,-47.363
1644359657.888,-128.906,992.188,745.605,-102.051,60.059
1644359657.892,37.598,-994.141,518.066,-48.340,142.090
1644359657.896,102.051,942.871,336.426,-2.930,92.285
1644359657.900,1.465,692.383,151.855,-25.879,40.039
1644359657.917,-47.363,434.570,-8.301,-22.461,82.520
1644359657.921,98.633,213.379,-132.812,22.949,67.871
1644359657.925,181.641,-14.648,-238.770,68.848,19.531
1644359657.929,104.492,-213.867,-329.102,53.223,4.883
1644359657.933,19.531,-376.953,-394.043,70.801,12.695
1644359657.937,113.770,-508.789,-443.848,111.328,8.789
1644359657.941,228.516,-602.539,-484.375,150.391,18.066
1644359657.944,185.547,-671.875,-509.277,120.117,70.801
1644359657.948,57.129,-716.797,-517.090,79.102,33.203
1644359657.952,88.379,-753.418,-524.414,85.938,22.461
1644359657.956,214.355,-776.855,-547.363,125.977,32.227
1644359657.960,205.566,-778.809,-532.715,137.695,22.949
1644359657.979,80.078,-779.297,-493.652,109.375,43.945
1644359657.983,46.875,-779.297,-478.516,96.680,38.086
1644359657.987,173.828,-782.227,-480.469,123.047,43.945
1644359657.991,225.586,-762.695,-464.355,148.926,41.992
1644359657.995,109.375,-743.652,-441.895,105.469,-19.531
1644359657.999,24.414,-736.816,-427.246,101.074,-1.465
1644359658.003,143.555,-723.145,-412.598,133.301,54.199
1644359658.006,230.469,-706.055,-404.297,168.457,6.348
1644359658.010,146.973,-681.641,-385.742,130.371,-5.371
1644359658.014,23.438,-659.180,-367.188,99.609,54.688
1644359658.018,87.402,-637.207,-362.305,107.910,44.434
1644359658.022,200.195,-616.211,-341.309,138.184,42.480
1644359657.984,158.203,-589.844,-312.012,130.859,54.688
1644359657.988,18.066,-563.477,-293.457,93.262,48.340
1644359657.992,24.414,-539.551,-281.738,69.336,23.926
1644359657.996,158.203,-522.461,-266.602,95.703,31.738
1644359658.000,172.852,-511.719,-260.254,100.098,7.324
1644359658.004,41.992,-493.652,-256.348,62.012,-15.625
1644359658.008,-11.719,-467.285,-242.188,52.246,78.125
1644359658.011,114.258,-443.848,-227.539,71.777,88.379
1644359658.015,165.527,-419.434,-218.750,100.586,56.641
1644359658.019,53.223,-389.160,-207.031,66.406,17.578
1644359658.023,-47.852,-372.070,-187.500,48.828,16.113
1644359658.027,50.293,-363.281,-171.387,61.523,38.086
1644359658.037,149.902,-346.191,-166.016,109.863,37.598
1644359658.041,84.961,-324.219,-161.133,93.262,35.156
1644359658.045,-39.551,-311.035,-145.996,65.430,51.270
1644359658.049,20.996,-299.805,-146.484,66.406,16.602
1644359658.053,148.438,-283.203,-145.508,87.891,-13.184
1644359658.057,121.094,-255.859,-127.930,83.496,56.152
1644359658.061,-13.184,-239.746,-113.770,60.059,46.875
1644359658.064,-15.625,-232.422,-116.211,62.012,33.691
1644359658.068,112.305,-225.098,-124.023,85.938,25.879
1644359658.072,138.184,-214.355,-120.117,73.242,-17.090
1644359658.076,19.531,-202.637,-96.680,31.738,-22.949
1644359658.080,-44.434,-205.078,-91.797,32.715,14.648
1644359658.067,83.008,-199.219,-105.469,55.176,30.273
1644359658.071,145.508,-179.199,-94.727,86.426,-3.418
1644359658.075,45.898,-164.062,-78.125,50.293,45.410
1644359658.079,-58.105,-150.391,-68.848,40.039,75.684
1644359658.083,34.668,-136.719,-69.336,70.312,28.320
1644359658.087,144.531,-127.441,-63.477,111.816,54.199
1644359658.091,90.820,-135.742,-66.895,85.449,54.688
1644359658.094,-41.992,-137.695,-78.613,54.688,54.199
1644359658.098,-3.418,-117.676,-59.082,63.965,42.969
1644359658.102,126.465,-110.352,-38.574,93.750,3.418
1644359658.106,115.234,-112.305,-38.574,81.543,-3.418
1644359658.110,-23.438,-104.492,-35.645,38.086,14.648
1644359658.158,-50.781,-100.586,-26.367,37.109,1.465
1644359658.162,84.961,-94.727,-31.738,77.637,16.602
1644359658.166,119.141,-86.914,-37.109,83.496,27.832
1644359658.170,3.418,-86.914,-38.574,25.879,43.945
1644359658.174,-67.871,-85.938,-47.363,14.648,95.703
1644359658.178,48.828,-78.613,-44.434,35.156,45.410
1644359658.182,123.535,-69.336,-34.668,68.359,65.918
1644359658.185,26.855,-63.965,-20.996,43.457,99.609
1644359658.189,-87.402,-69.824,-8.789,30.273,36.133
1644359658.193,-2.441,-79.102,-16.113,40.527,2.930
1644359658.197,115.723,-71.289,-21.973,72.266,28.320
1644359658.201,70.801,-57.129,-8.301,48.828,31.738
1644359658.162,-66.406,-47.363,-9.766,21.973,47.852
1644359658.166,-42.480,-41.992,-18.555,26.367,45.898
1644359658.170,91.797,-41.992,-10.742,46.387,23.438
1644359658.174,97.168,-41.504,-3.906,51.758,35.156
1644359658.178,-29.785,-39.551,-0.977,15.625,4.395
1644359658.182,-66.406,-42.480,-8.789,13.184,13.672
1644359658.186,73.242,-48.340,-20.508,42.480,41.016
1644359658.189,128.906,-39.551,-16.113,59.082,40.527
1644359658.193,22.461,-36.621,-4.395,14.160,50.293
1644359658.197,-61.523,-41.992,-0.977,-1.465,47.363
1644359658.201,40.039,-33.691,0.488,14.160,26.855
1644359658.205,124.512,-25.391,2.930,50.293,0.488
1644359658.204,48.340,-20.996,-0.977,28.320,16.113
1644359658.208,-71.289,-19.043,-1.465,0.977,81.055
1644359658.212,-17.578,-21.973,5.371,0.977,64.941
1644359658.216,100.586,-18.066,5.859,41.992,25.391
1644359658.220,84.961,-16.113,-6.348,38.086,16.602
1644359658.224,-47.852,-22.461,-6.348,-12.695,-1.465
1644359658.228,-43.457,-20.508,1.953,-17.578,50.293
1644359658.231,93.262,-11.719,-8.301,19.531,39.551
1644359658.235,102.539,-1.465,-16.113,21.973,1.465
1644359658.239,-22.949,-4.395,-6.836,-14.648,8.301
1644359658.243,-71.289,-6.348,-0.977,-17.090,32.227
1644359658.247,57.129,-5.371,-5.371,11.719,2.441
1644359658.307,116.211,-13.672,-8.789,40.527,0.000
1644359658.311,10.742,-13.184,-7.324,2.441,10.742
1644359658.315,-89.355,-0.488,-0.977,-15.137,29.297
1644359658.319,8.301,-5.371,2.441,-2.441,48.828
1644359658.323,101.074,-8.301,9.766,33.203,31.250
1644359658.327,38.574,-10.254,19.531,12.207,20.020
1644359658.331,-78.125,-18.555,18.555,-14.648,-16.113
1644359658.334,-30.273,-14.648,10.742,-5.859,-1.953
1644359658.338,93.750,-8.301,9.766,37.598,43.457
1644359658.342,78.613,-7.324,7.812,39.551,-10.742
1644359658.346,-47.852,-10.742,8.301,-2.441,30.273
1644359658.350,-49.805,-5.859,1.465,-6.348,84.961
1644359658.310,83.496,-3.418,7.324,28.320,30.273
1644359658.314,100.586,-10.742,27.832,36.133,24.902
1644359658.318,-20.020,-13.672,23.926,-7.812,28.809
1644359658.322,-78.613,-8.789,6.348,-8.789,10.254
1644359658.326,41.504,-2.930,0.000,16.602,17.578
1644359658.330,110.840,0.488,14.160,43.457,72.754
1644359658.334,24.902,-4.883,20.020,6.348,66.406
1644359658.337,-83.008,-3.418,7.812,-12.207,55.664
1644359658.341,-7.324,1.465,6.348,6.836,11.230
1644359658.345,106.934,1.953,15.625,48.340,-31.738
1644359658.349,63.477,3.418,20.508,23.926,14.160
1644359658.353,-74.219,2.930,29.785,-3.418,31.250
1644359658.352,-39.551,-0.488,24.902,11.230,40.039
1644359658.356,98.633,-1.953,12.207,50.293,38.086
1644359658.360,94.727,-0.488,10.254,49.805,49.805
1644359658.364,-31.738,-15.625,20.508,7.812,100.098
1644359658.368,-60.547,-21.973,11.719,1.953,90.820
1644359658.372,67.871,-5.859,11.230,25.879,47.363
1644359658.376,106.934,8.789,30.273,45.898,36.133
1644359658.379,-1.953,11.230,27.832,5.859,28.320
1644359658.383,-83.496,4.395,9.766,-11.230,12.207
1644359658.387,31.738,0.000,8.789,10.742,48.828
1644359658.391,118.652,0.488,24.414,54.199,38.574
1644359658.395,31.738,1.465,32.227,31.738,4.883
1644359658.397,-87.891,1.465,32.227,10.254,60.059
1644359658.401,-10.254,4.395,23.438,28.320,83.496
1644359658.405,113.281,7.324,13.672,57.617,48.828
1644359658.409,73.242,7.812,12.695,26.855,-20.020
