timestamps,TP9,AF7,AF8,TP10,Right AUX
1644359859.161,254.395,8.789,82.520,145.020,34.668
1644359859.165,71.777,-14.648,98.633,169.922,13.184
1644359859.169,-237.305,-47.363,66.895,168.945,11.719
1644359859.173,-89.355,-11.719,59.082,147.949,28.320
1644359859.177,245.117,24.414,67.871,154.785,31.250
1644359859.181,223.145,-28.809,15.137,162.598,18.555
1644359859.185,-85.938,-29.785,26.855,215.820,12.695
1644359859.188,-138.672,28.320,69.336,176.758,39.062
1644359859.192,127.930,-4.395,39.062,77.637,21.973
1644359859.196,184.570,-21.484,36.621,39.551,19.043
1644359859.200,-113.770,-11.230,71.289,41.016,13.672
1644359859.204,-239.746,-28.809,80.078,65.430,28.809
1644359859.205,102.539,-35.645,58.594,-20.996,52.246
1644359859.209,246.582,-8.789,53.711,-62.500,3.906
1644359859.213,14.160,-2.930,61.035,-31.250,7.324
1644359859.217,-187.012,-30.273,61.035,-20.020,-1.465
1644359859.221,66.406,-39.062,67.871,-85.938,7.812
1644359859.225,257.324,6.836,68.359,-226.562,33.691
1644359859.229,41.504,6.836,34.180,-317.383,-0.488
1644359859.232,-226.562,10.254,27.344,-280.273,24.414
1644359859.236,-96.191,-12.695,12.207,-321.289,55.664
1644359859.240,196.777,-44.922,44.922,-375.000,56.641
1644359859.244,154.297,-15.137,78.125,-365.723,81.543
1644359859.248,-155.762,5.859,54.688,-284.668,80.566
1644359859.266,-160.645,-2.441,49.316,-237.793,26.367
1644359859.270,173.828,-3.906,72.754,-269.043,-3.906
1644359859.274,260.742,-10.742,69.824,-227.051,27.832
1644359859.278,-21.484,-29.785,46.387,-223.145,49.805
1644359859.282,-162.598,-40.527,75.195,-210.449,51.270
1644359859.286,112.793,-15.625,56.641,-212.402,40.527
1644359859.290,216.309,-2.441,19.043,-282.715,0.488
1644359859.293,-19.043,-20.508,37.109,-281.250,42.969
1644359859.297,-218.750,-26.367,46.387,-155.273,38.086
1644359859.301,10.254,-29.297,42.969,-93.750,4.883
1644359859.305,284.668,-13.184,74.219,-81.055,40.039
1644359859.309,143.066,-38.574,64.453,-97.656,1.953
1644359859.280,-195.312,-52.734,48.828,-98.145,31.738
1644359859.284,-112.305,-3.418,37.598,-99.121,71.289
1644359859.288,210.449,-29.785,20.996,-114.258,17.090
1644359859.292,206.543,-31.738,63.965,-96.191,-11.719
1644359859.296,-103.516,-28.809,73.730,-55.664,14.160
1644359859.300,-158.203,-33.691,29.297,-29.297,45.898
1644359859.304,167.969,-14.160,25.879,-21.484,31.738
1644359859.307,262.695,-8.301,56.152,6.836,-7.812
1644359859.311,-23.438,-32.227,85.938,31.738,-6.348
1644359859.315,-205.566,-37.109,82.520,127.930,19.531
1644359859.319,68.848,-30.273,42.480,120.605,9.277
1644359859.323,239.258,-23.926,36.621,107.422,17.090
1644359859.329,44.922,-25.391,58.105,172.852,3.906
1644359859.333,-191.895,-57.129,39.551,236.328,15.625
1644359859.337,27.832,-42.480,49.805,277.832,20.996
1644359859.341,265.137,-28.809,60.059,261.230,-5.859
1644359859.345,117.676,-55.176,25.879,203.125,-4.395
1644359859.349,-165.039,-22.949,42.480,259.766,55.664
1644359859.353,-114.746,-5.371,41.504,286.133,65.430
1644359859.356,244.141,-7.324,18.555,241.699,27.832
1644359859.360,269.043,7.324,55.664,197.754,42.480
1644359859.364,-77.148,-15.137,72.754,170.898,65.430
1644359859.368,-137.207,-43.457,97.168,198.730,66.895
1644359859.372,136.230,-37.598,59.570,105.957,2.930
1644359859.400,193.848,-44.922,-5.371,-11.719,28.320
1644359859.404,-11.719,-59.570,32.715,11.719,90.332
1644359859.408,-162.598,11.230,79.102,61.523,52.734
1644359859.412,41.504,-2.441,58.105,56.152,28.809
1644359859.416,229.004,-23.438,27.832,66.406,-4.883
1644359859.420,93.750,15.137,37.109,98.145,-28.809
1644359859.424,-177.734,-43.457,-5.859,163.574,5.859
1644359859.427,-35.156,-56.152,29.297,122.070,5.859
1644359859.431,211.914,-6.836,95.215,74.219,50.293
1644359859.435,121.582,-1.953,56.152,141.602,37.598
1644359859.439,-154.297,6.836,63.965,220.703,5.371
1644359859.443,-104.004,-14.648,71.777,252.441,4.395
1644359859.417,223.633,-23.926,58.105,236.816,-26.855
1644359859.421,271.484,6.836,48.828,246.582,19.043
1644359859.425,-72.266,-10.254,18.066,265.137,21.484
1644359859.429,-159.180,-16.602,49.316,292.480,-3.906
1644359859.433,155.273,-10.742,63.477,154.785,-8.789
1644359859.437,238.770,-61.035,45.898,45.898,27.344
1644359859.441,-8.789,-49.316,53.711,90.820,64.941
1644359859.444,-211.426,3.418,43.457,57.129,65.430
1644359859.448,22.461,-4.395,61.035,35.156,53.711
1644359859.452,259.766,-22.949,61.035,114.258,26.367
1644359859.456,142.578,-33.203,36.133,93.750,38.574
1644359859.460,-158.203,-49.805,41.992,114.258,40.527
1644359859.475,-77.148,-39.551,51.270,169.434,42.969
1644359859.479,211.914,-26.367,56.152,207.520,55.664
1644359859.483,178.223,-30.762,37.598,208.984,17.578
1644359859.487,-123.047,-43.945,46.387,217.773,51.270
1644359859.491,-139.648,-76.172,58.105,242.188,102.051
1644359859.495,193.848,-17.578,7.324,245.605,67.383
1644359859.499,271.484,-7.812,13.672,249.023,-18.066
1644359859.502,0.977,-37.598,71.777,260.254,8.789
1644359859.506,-162.598,-58.594,73.242,257.812,58.594
1644359859.510,34.668,-95.703,56.641,167.480,-35.645
1644359859.514,214.355,-25.391,61.523,164.551,-31.738
1644359859.518,71.777,15.137,86.914,211.914,8.789
1644359859.539,-177.734,-41.504,60.059,208.984,40.527
1644359859.543,18.555,-61.035,33.203,155.273,41.016
1644359859.547,273.926,-34.180,22.949,133.301,12.207
1644359859.551,123.535,-56.641,7.812,111.816,12.207
1644359859.555,-196.289,-81.543,40.039,102.051,62.988
1644359859.559,-107.422,-26.855,83.496,59.082,69.824
1644359859.563,224.121,-38.086,76.660,-8.301,69.824
1644359859.566,229.004,-40.527,76.172,-102.539,41.992
1644359859.570,-93.262,-17.578,48.340,-139.160,29.785
1644359859.574,-183.594,-30.273,-12.207,-110.840,43.457
1644359859.578,117.676,-0.977,5.371,-81.055,26.367
1644359859.582,245.605,8.301,55.176,46.387,24.902
1644359859.612,-26.367,-36.133,2.930,49.316,47.852
1644359859.616,-179.199,-29.297,41.992,2.930,67.383
1644359859.620,125.000,21.484,153.809,13.672,45.410
1644359859.624,265.625,-20.508,82.520,-43.945,74.219
1644359859.628,41.504,-65.430,42.969,-101.562,65.918
1644359859.632,-236.328,-52.246,26.367,-81.055,40.039
1644359859.636,-27.344,4.395,-1.953,-39.551,37.598
1644359859.639,297.852,12.695,31.738,4.883,17.578
1644359859.643,152.344,-27.832,63.477,48.340,16.113
1644359859.647,-193.848,-42.480,49.316,26.367,21.484
1644359859.651,-115.723,-8.301,44.922,-151.855,84.473
1644359859.655,198.242,14.648,56.641,-227.051,92.773
1644359859.615,195.312,-11.230,38.086,-223.633,59.570
1644359859.619,-101.074,-22.461,22.949,-247.559,70.312
1644359859.623,-146.484,-17.578,21.484,-213.379,87.402
1644359859.627,152.832,-29.785,36.133,-165.527,104.492
1644359859.631,257.812,-42.480,45.410,-129.883,90.332
1644359859.635,25.391,-15.137,51.270,-146.973,52.246
1644359859.639,-193.848,20.020,59.570,-120.117,3.418
1644359859.642,15.625,-2.441,74.707,-90.820,21.484
1644359859.646,247.070,-18.066,60.059,-8.789,8.789
1644359859.650,106.934,-25.879,48.340,80.566,-18.555
1644359859.654,-180.176,-35.156,25.391,146.484,22.461
1644359859.658,-28.320,-43.945,-38.574,144.531,46.387
1644359859.685,250.488,-32.227,5.859,149.902,1.953
1644359859.689,143.555,25.391,63.965,173.340,0.977
1644359859.693,-180.176,19.043,68.359,182.617,21.484
1644359859.697,-164.062,-30.273,65.918,207.031,-31.738
1644359859.701,150.879,-29.297,54.199,211.914,-5.371
1644359859.705,199.707,-3.418,48.340,215.332,51.270
1644359859.709,-41.504,-0.488,49.805,246.582,16.602
1644359859.712,-124.023,-27.832,44.922,204.102,-16.113
1644359859.716,144.043,-33.691,42.969,89.844,2.441
1644359859.720,277.344,9.277,47.852,76.660,-2.441
1644359859.724,53.223,4.883,47.852,79.590,3.418
1644359859.728,-217.773,-27.344,24.902,63.965,31.250
1644359859.732,-58.594,-14.160,25.879,30.762,21.484
1644359859.736,208.984,-6.348,30.762,42.480,5.371
1644359859.740,91.797,-6.348,41.016,80.566,21.484
1644359859.744,-193.848,-19.043,41.992,156.250,47.363
1644359859.748,-47.363,-41.016,23.438,143.555,47.363
1644359859.752,258.301,-20.996,39.551,77.637,22.949
1644359859.756,208.984,-0.488,41.504,97.656,31.250
1644359859.759,-100.098,-19.043,42.480,94.238,75.195
1644359859.763,-135.742,-20.996,37.598,66.406,21.973
1644359859.767,175.293,-5.371,28.320,90.820,38.574
1644359859.771,242.676,-3.906,29.297,122.559,70.312
1644359859.775,-39.062,9.277,34.668,142.090,43.945
1644359859.760,-205.566,0.000,50.781,164.062,36.133
1644359859.764,85.938,-5.859,29.785,138.672,61.035
1644359859.768,278.320,19.531,20.996,152.344,72.754
1644359859.772,61.035,8.301,51.758,192.383,45.898
1644359859.776,-202.637,-22.461,41.504,244.141,23.926
1644359859.780,1.465,-7.812,39.551,292.969,-4.883
1644359859.784,268.066,-11.719,36.621,277.344,33.691
1644359859.787,126.953,-20.508,11.719,201.172,24.902
1644359859.791,-184.570,-7.324,13.672,240.234,-1.953
1644359859.795,-91.309,8.789,37.109,272.461,21.484
1644359859.799,233.887,15.625,64.453,262.695,26.855
1644359859.803,246.094,-8.301,61.523,272.461,11.719
1644359859.791,-110.352,-20.020,41.016,296.387,4.883
1644359859.795,-198.730,-8.301,40.527,315.430,22.461
1644359859.799,118.164,-2.441,37.598,266.602,69.824
1644359859.803,250.488,-0.977,13.184,249.512,63.965
1644359859.807,13.672,-12.207,5.859,289.062,24.902
1644359859.811,-223.633,-21.973,46.875,291.992,-15.137
1644359859.815,51.758,4.395,51.270,264.648,2.930
1644359859.818,293.945,20.020,41.016,291.992,41.992
1644359859.822,50.781,-13.672,39.551,254.883,52.246
1644359859.826,-236.328,-34.668,51.758,284.180,52.734
1644359859.830,-10.254,-17.578,10.254,300.293,2.930
1644359859.834,245.117,-12.695,-7.812,267.090,13.672
1644359859.850,142.578,-4.883,49.805,277.832,47.363
1644359859.854,-166.016,-11.230,51.270,277.832,61.035
1644359859.858,-143.555,-10.742,39.062,240.723,61.035
1644359859.862,241.211,-4.883,42.969,259.277,48.340
1644359859.866,258.789,-4.883,40.527,270.996,22.461
1644359859.870,-120.117,8.301,30.273,252.441,16.113
1644359859.874,-205.566,0.977,30.762,272.949,10.254
1644359859.877,123.535,6.348,6.836,270.508,-23.926
1644359859.881,273.438,14.160,1.953,290.039,49.316
1644359859.885,72.754,-14.648,28.809,301.758,53.711
1644359859.889,-149.414,-58.105,57.129,275.391,30.762
1644359859.893,24.414,-26.367,67.871,186.523,14.160
1644359860.031,222.168,6.836,32.227,169.922,-41.016
1644359860.035,56.641,-2.441,16.113,202.637,10.742
1644359860.039,-198.242,-17.578,27.344,259.766,73.242
1644359860.043,-18.555,-4.883,24.902,252.930,77.148
1644359860.047,295.898,1.465,31.250,214.355,102.051
1644359860.051,187.012,-14.160,45.410,217.773,49.805
1644359860.055,-166.504,-10.742,43.457,245.605,6.836
1644359860.058,-116.699,-29.297,34.180,242.188,9.766
1644359860.062,207.031,-41.016,44.434,217.285,-14.160
1644359860.066,218.262,-0.488,44.922,216.797,24.902
1644359860.070,-66.895,20.020,17.578,227.539,-15.625
1644359860.074,-144.531,8.301,29.785,231.934,-8.789
1644359860.035,130.371,-5.859,23.926,207.520,35.156
1644359860.039,232.422,-15.625,26.367,219.238,41.016
1644359860.043,2.930,-26.367,64.453,186.523,39.062
1644359860.047,-201.172,-33.691,36.621,190.918,47.852
1644359860.051,26.367,-45.410,-5.371,211.426,8.789
1644359860.055,250.977,-5.371,-4.395,214.355,-27.344
1644359860.059,107.422,15.137,47.363,195.801,-8.301
1644359860.062,-162.109,1.953,89.355,214.844,11.230
1644359860.066,-36.133,8.789,45.410,194.824,23.438
1644359860.070,232.422,10.742,37.109,196.289,2.441
1644359860.074,170.898,0.488,41.504,199.707,4.395
1644359860.078,-124.023,-19.043,28.809,182.129,38.574
1644359860.040,-139.160,-25.879,35.645,192.871,51.270
1644359860.044,163.574,-8.301,16.602,173.340,-3.418
1644359860.048,200.195,5.371,8.301,166.992,14.648
1644359860.052,-52.734,-22.949,39.551,173.828,-4.395
1644359860.056,-163.574,-15.137,40.039,176.270,24.902
1644359860.060,90.332,20.996,24.414,153.320,82.031
1644359860.064,242.188,13.184,25.391,176.270,-15.625
1644359860.067,53.223,-21.484,41.992,189.453,-30.762
1644359860.071,-190.430,-39.551,63.965,180.176,1.953
1644359860.075,-15.625,-15.137,30.762,169.434,63.965
1644359860.079,240.234,-6.348,12.207,152.832,98.633
1644359860.083,136.719,-18.066,33.691,146.973,30.762
1644359860.046,-145.508,-27.832,86.914,212.891,58.105
1644359860.050,-88.867,-19.531,41.504,210.449,43.457
1644359860.054,152.832,2.441,-42.969,146.484,20.020
1644359860.058,173.828,5.371,37.109,125.000,45.898
1644359860.062,-55.664,-13.184,68.848,151.855,47.363
1644359860.066,-166.016,-21.973,48.340,159.180,91.797
1644359860.070,101.562,-8.789,38.574,127.930,47.363
1644359860.073,230.957,-7.812,17.578,136.230,36.133
1644359860.077,-17.090,-27.832,-7.812,148.926,58.594
1644359860.081,-186.035,-37.109,32.715,153.320,26.855
1644359860.085,101.562,-2.930,66.406,127.441,9.277
1644359860.089,295.898,15.137,38.086,125.000,12.695
1644359860.152,41.992,-0.977,21.484,152.344,-11.719
1644359860.156,-203.613,-19.531,-6.348,178.711,74.219
1644359860.160,-10.254,-28.809,29.297,116.699,91.797
1644359860.164,236.328,13.672,78.613,106.934,20.996
1644359860.168,134.277,24.902,53.711,119.141,-7.812
1644359860.172,-135.254,2.930,60.547,131.836,20.996
1644359860.176,-40.527,-1.953,46.875,131.836,83.984
1644359860.179,214.844,-27.832,8.301,120.117,25.391
1644359860.183,188.965,-40.527,29.297,105.957,4.883
1644359860.187,-101.562,-7.812,26.367,111.816,45.898
1644359860.191,-193.359,7.812,1.465,112.305,34.668
1644359860.195,162.109,10.254,52.734,57.617,28.809
1644359860.155,305.664,12.695,51.270,60.547,-2.930
1644359860.159,-15.137,-10.742,24.414,82.031,-6.836
1644359860.163,-219.727,-20.508,41.016,103.516,2.441
1644359860.167,56.152,-10.254,53.711,101.562,21.973
1644359860.171,279.785,-16.113,34.180,108.398,80.078
1644359860.175,105.469,-25.391,13.672,104.980,78.613
1644359860.179,-154.785,-27.344,43.457,114.258,66.895
1644359860.182,7.324,-39.062,40.527,104.980,20.508
1644359860.186,278.809,-28.809,15.137,110.352,33.203
1644359860.190,157.715,23.438,30.762,84.961,67.383
1644359860.194,-182.129,33.203,57.129,75.684,5.371
1644359860.198,-133.301,-6.348,54.199,71.289,29.785
1644359860.196,221.191,1.465,55.176,77.637,46.875
1644359860.200,242.188,14.648,44.434,115.234,76.172
1644359860.204,-93.262,-14.648,34.180,116.699,31.738
1644359860.208,-209.473,-6.348,17.578,126.465,-4.395
1644359860.212,125.000,-18.555,40.039,96.191,42.480
1644359860.216,298.828,-52.246,78.125,79.102,47.852
1644359860.220,54.688,-18.555,66.895,95.703,13.672
1644359860.223,-200.195,17.578,51.270,131.348,40.527
1644359860.227,28.809,-8.789,25.879,72.754,37.109
1644359860.231,270.996,-19.043,-1.465,40.527,-16.602
1644359860.235,127.441,-14.160,20.020,52.734,5.371
1644359860.239,-182.129,-20.508,15.625,78.613,11.719
1644359860.421,-83.008,1.465,36.621,72.754,-10.254
1644359860.425,223.633,12.695,86.426,48.340,14.160
1644359860.429,163.574,-6.836,61.523,43.945,42.969
1644359860.433,-151.367,-17.578,36.133,57.617,0.000
1644359860.437,-157.227,-9.766,39.062,60.059,1.465
1644359860.441,170.898,-15.137,32.227,71.289,-16.113
1644359860.445,254.395,-36.133,2.930,81.543,-21.973
1644359860.448,-23.438,-32.715,16.602,87.891,52.246
1644359860.452,-179.199,-1.465,43.457,105.957,54.688
1644359860.456,112.305,20.020,35.645,64.453,74.219
1644359860.460,282.227,23.438,37.109,43.457,48.828
1644359860.464,33.203,12.695,42.480,62.012,6.348
1644359860.484,-211.426,-6.348,53.223,121.094,59.082
1644359860.488,-2.930,-15.625,39.551,64.453,54.688
1644359860.492,254.883,-7.812,19.531,25.879,49.316
1644359860.496,140.625,-11.230,17.578,42.969,35.156
1644359860.500,-139.160,-17.090,9.766,60.547,15.625
1644359860.504,-41.504,-4.883,25.879,47.852,51.270
1644359860.508,234.375,9.277,40.527,45.898,55.176
1644359860.511,208.496,21.973,44.922,58.105,62.012
1644359860.515,-104.004,-20.508,36.621,68.359,91.797
1644359860.519,-144.531,-40.039,20.508,79.590,24.902
1644359860.523,159.668,15.137,20.020,55.176,50.293
1644359860.527,250.488,22.949,26.855,60.547,68.359
1644359860.510,32.227,22.949,53.711,76.660,43.945
1644359860.514,-147.949,1.465,58.105,84.961,50.781
1644359860.518,80.566,-15.137,31.250,65.918,15.137
1644359860.522,250.000,-8.789,28.809,41.016,37.109
1644359860.526,56.152,-8.789,32.227,29.297,34.668
1644359860.530,-218.262,-3.906,29.297,72.266,6.348
1644359860.534,-43.457,2.441,34.180,73.242,19.531
1644359860.537,256.836,12.695,24.902,85.449,44.922
1644359860.541,172.852,-6.836,21.973,71.777,52.246
1644359860.545,-105.957,-9.277,25.391,68.359,58.594
1644359860.549,-44.434,-25.879,27.832,36.621,55.664
1644359860.553,199.707,-38.086,43.945,-24.414,29.297
1644359860.555,151.855,-6.836,22.949,-25.391,27.832
1644359860.559,-139.160,3.418,13.184,-1.465,91.309
1644359860.563,-201.172,4.883,34.180,-25.391,36.133
1644359860.567,124.023,-10.254,43.457,-56.152,-11.719
1644359860.571,250.488,0.977,14.160,-44.922,45.410
1644359860.575,32.227,7.324,6.348,-21.973,55.176
1644359860.579,-170.898,-7.812,50.781,42.480,28.809
1644359860.582,25.391,-27.344,45.410,-1.953,5.859
1644359860.586,240.234,-29.785,33.691,-21.973,8.301
1644359860.590,90.820,-5.371,38.574,3.906,11.230
1644359860.594,-202.148,-16.602,36.133,34.180,6.836
1644359860.598,-29.297,-22.461,28.320,22.949,0.977
1644359860.570,266.602,6.348,6.836,6.348,-29.785
1644359860.574,139.648,6.836,7.324,-8.301,-25.879
1644359860.578,-175.293,-14.648,31.250,15.625,25.391
1644359860.582,-162.109,-20.996,27.344,30.762,16.602
1644359860.586,168.457,-13.184,28.809,19.043,42.969
1644359860.590,235.352,-8.301,26.855,4.395,50.293
1644359860.594,-76.660,2.930,45.410,15.137,21.973
1644359860.597,-169.922,-1.465,46.387,34.668,46.387
1644359860.601,130.859,6.348,28.809,-4.395,46.875
1644359860.605,239.258,3.418,3.418,-9.766,38.574
1644359860.609,6.348,-51.758,8.301,-14.648,51.270
1644359860.613,-209.473,-57.617,61.035,-24.902,66.895
1644359860.660,17.090,4.883,59.570,-53.711,12.695
1644359860.664,230.469,30.762,29.785,-40.039,21.484
1644359860.668,109.863,12.207,34.668,-19.043,14.648
1644359860.672,-150.391,-1.465,31.738,13.184,43.945
1644359860.676,-28.809,9.277,13.184,-28.320,80.078
1644359860.680,291.992,-13.672,24.414,-54.688,23.438
1644359860.684,223.145,-23.438,27.832,-35.645,12.695
1644359860.687,-146.973,0.488,17.578,-18.066,32.227
1644359860.691,-189.941,-18.066,47.363,-36.133,67.383
1644359860.695,173.340,-18.555,51.270,-114.258,72.754
1644359860.699,271.484,4.883,20.508,-142.090,34.668
1644359860.703,-47.363,-15.137,28.320,-132.324,32.227
1644359860.664,-225.586,-22.461,50.781,-98.145,61.035
1644359860.668,68.848,7.324,27.344,-113.770,45.898
1644359860.672,242.188,18.555,-4.883,-126.465,45.898
1644359860.676,28.809,-2.441,26.855,-130.859,34.180
1644359860.680,-218.750,-28.320,28.320,-98.145,-2.441
1644359860.684,-2.441,-6.836,27.344,-95.703,11.719
1644359860.688,307.617,0.977,28.809,-99.609,24.902
1644359860.691,172.363,-15.137,1.953,-109.863,29.297
1644359860.695,-184.570,7.324,15.137,-101.562,37.598
1644359860.699,-133.301,2.441,39.062,-111.328,37.598
1644359860.703,189.941,-0.488,48.340,-120.605,53.223
1644359860.707,195.312,20.020,25.879,-118.164,33.203
1644359860.670,-91.309,3.418,11.719,-116.211,30.762
1644359860.674,-104.980,-28.809,20.020,-95.703,26.855
1644359860.678,173.340,-7.812,28.809,-75.195,21.484
1644359860.682,217.773,8.301,12.695,-67.383,27.344
1644359860.686,-15.625,5.371,-1.465,-67.871,10.742
1644359860.690,-178.223,20.020,35.156,-64.941,53.711
1644359860.694,53.711,7.812,50.293,-80.566,35.156
1644359860.697,227.539,9.277,16.113,-58.105,17.090
1644359860.701,47.363,6.836,18.066,-80.566,-6.836
1644359860.705,-213.867,-13.184,36.621,-67.871,-26.367
1644359860.709,-26.855,-21.973,47.852,-56.641,-22.949
1644359860.713,288.574,-19.531,32.227,-21.484,-31.250
1644359860.690,161.133,-9.766,13.184,13.184,3.906
1644359860.694,-191.406,-0.488,25.391,52.246,52.734
1644359860.698,-163.086,13.184,10.742,87.402,98.145
1644359860.702,237.793,28.809,4.395,86.914,79.102
1644359860.706,253.906,-0.977,21.973,50.293,43.945
1644359860.710,-150.391,-19.043,46.875,57.617,52.246
1644359860.714,-212.891,0.000,57.129,107.910,33.691
1644359860.717,118.164,-0.977,30.273,73.730,14.648
1644359860.721,245.117,0.000,-8.301,41.504,27.344
1644359860.725,30.273,8.789,12.695,69.824,39.062
1644359860.729,-158.203,3.906,45.898,109.375,46.875
1644359860.733,123.535,4.883,43.457,93.750,45.410
1644359860.735,308.594,10.742,32.715,95.215,41.016
1644359860.739,45.898,8.301,16.602,95.215,35.645
1644359860.743,-204.590,-0.977,39.062,103.516,26.855
1644359860.747,-18.555,-5.371,32.227,112.305,17.090
1644359860.751,251.953,-1.465,-0.488,124.023,0.488
1644359860.755,186.523,5.371,9.766,95.215,25.879
1644359860.759,-114.258,-9.766,51.758,114.258,62.500
1644359860.762,-102.539,-25.879,63.477,128.418,42.480
1644359860.766,203.613,7.812,46.875,124.512,28.809
1644359860.770,249.512,26.367,19.531,115.234,41.016
1644359860.774,-46.875,-9.277,20.996,67.871,3.418
1644359860.778,-146.973,-13.672,34.668,69.336,-6.348
1644359860.812,139.160,14.648,11.719,49.316,28.809
1644359860.816,260.254,35.156,7.324,61.035,31.250
1644359860.820,47.363,31.738,0.977,104.980,16.602
1644359860.824,-164.062,-18.555,12.695,136.719,20.508
1644359860.828,21.973,-8.789,25.879,69.824,41.016
1644359860.832,260.742,27.344,20.020,49.316,34.180
1644359860.836,145.996,13.184,29.297,62.012,21.484
1644359860.839,-180.664,16.602,41.992,72.754,-7.324
1644359860.843,-80.566,11.230,30.762,71.289,43.457
1644359860.847,230.957,9.277,22.949,66.895,31.738
1644359860.851,221.680,22.461,40.039,87.891,-29.297
1644359860.855,-68.848,3.418,16.113,101.074,35.645
1644359860.930,-129.883,9.277,14.648,83.008,29.297
1644359860.934,141.113,-14.648,45.898,64.453,30.273
1644359860.938,205.566,-14.648,43.945,69.336,43.457
1644359860.942,-74.707,31.250,18.555,42.969,15.137
1644359860.946,-222.656,-10.254,29.785,36.621,6.348
1644359860.950,68.848,-22.949,52.734,7.812,8.789
1644359860.954,263.672,15.625,29.785,-9.277,-0.488
1644359860.957,66.895,-10.742,10.254,9.766,39.062
1644359860.961,-195.312,-11.230,30.273,29.785,84.961
1644359860.965,-11.230,37.598,24.414,-8.789,77.637
1644359860.969,252.441,41.016,5.371,-19.531,43.457
1644359860.973,139.648,21.973,10.742,-14.648,38.574
1644359860.936,-168.945,11.719,28.320,11.719,52.246
1644359860.940,-73.730,-1.465,20.020,-10.254,-9.277
1644359860.944,204.590,5.371,6.348,-34.668,-67.871
1644359860.948,176.758,3.906,19.043,-5.371,5.371
1644359860.952,-72.266,-1.465,21.973,23.438,61.035
1644359860.956,-139.160,14.160,8.301,29.785,90.820
1644359860.960,114.258,10.254,20.020,22.461,87.402
1644359860.963,235.840,6.836,33.203,32.715,46.875
1644359860.967,16.602,7.324,35.156,52.734,52.734
1644359860.971,-194.336,-7.324,44.922,69.824,38.086
1644359860.975,40.527,4.395,37.109,30.273,-22.949
1644359860.979,249.023,-45.898,-15.625,37.109,-48.340
1644359861.037,74.707,-54.199,13.672,52.246,-32.227
1644359861.041,-192.383,43.945,59.570,60.059,-1.465
1644359861.045,-20.020,70.312,40.527,18.066,23.926
1644359861.049,237.793,44.434,29.785,-1.465,40.527
1644359861.053,182.617,19.043,4.883,29.297,58.105
1644359861.057,-115.234,-8.301,37.109,87.402,73.730
1644359861.061,-115.723,-12.695,11.719,69.824,46.875
1644359861.064,180.176,4.883,8.789,1.465,24.902
1644359861.068,189.453,3.906,50.293,-2.441,77.637
1644359861.072,-89.355,-30.273,27.832,32.227,56.641
1644359861.076,-127.441,-7.812,41.016,47.363,37.109
1644359861.080,173.340,41.504,40.527,22.461,73.730
1644359861.098,243.652,16.113,38.086,13.184,53.223
1644359861.102,17.578,-16.602,49.316,33.203,10.254
1644359861.106,-157.715,-26.855,38.574,104.492,18.066
1644359861.110,89.844,-20.020,12.207,106.934,30.273
1644359861.114,218.750,-12.207,-30.762,45.410,27.832
1644359861.118,-5.859,26.855,13.672,6.836,20.508
1644359861.122,-212.402,28.809,83.496,41.992,12.207
1644359861.125,-36.621,-5.859,46.875,35.645,-1.465
1644359861.129,211.426,2.930,32.715,53.711,17.090
1644359861.133,140.625,17.578,26.855,74.219,10.742
1644359861.137,-135.254,13.184,0.977,82.520,-7.324
1644359861.141,-125.977,-7.324,23.926,53.711,-18.066
1644359861.186,168.945,-9.277,39.551,12.695,-2.441
1644359861.190,215.332,0.488,25.391,35.156,-4.395
1644359861.194,-45.898,-10.254,24.902,64.941,-27.344
1644359861.198,-161.133,-14.160,40.527,76.172,19.531
1644359861.202,123.047,6.836,33.691,72.754,70.801
1644359861.206,229.492,10.742,24.902,58.594,93.262
1644359861.210,19.531,-1.465,18.066,26.367,59.082
1644359861.213,-175.293,7.324,8.301,43.457,42.969
1644359861.217,20.508,15.625,-0.977,50.781,53.223
1644359861.221,263.184,-0.488,-2.441,62.988,78.613
1644359861.225,108.398,-3.906,8.301,64.941,57.617
1644359861.229,-217.285,8.301,28.809,77.637,50.781
1644359861.204,-93.750,22.461,30.762,32.715,18.066
1644359861.208,230.469,17.578,25.391,17.578,37.109
1644359861.212,238.770,3.418,18.555,24.414,80.566
1644359861.216,-65.430,7.812,-11.230,26.367,37.109
1644359861.220,-181.152,-1.465,-13.184,24.902,31.738
1644359861.224,116.699,15.137,12.207,9.277,52.246
1644359861.228,210.938,12.695,20.508,3.906,33.203
1644359861.231,-49.316,11.719,27.832,1.953,0.000
1644359861.235,-179.199,11.719,20.996,13.672,8.789
1644359861.239,88.867,1.465,10.254,-10.254,-3.906
1644359861.243,254.395,18.066,25.879,-23.438,17.090
1644359861.247,73.242,23.926,49.316,-0.488,46.387
1644359861.209,-155.762,-1.465,23.926,53.711,30.762
1644359861.213,30.762,10.742,-8.301,31.250,22.461
1644359861.217,257.324,34.668,20.996,-7.812,33.691
1644359861.221,143.066,19.043,19.531,-1.465,52.734
1644359861.225,-159.668,9.766,-2.930,21.484,18.555
1644359861.229,-111.816,9.766,16.602,0.488,66.406
1644359861.233,213.379,12.207,43.457,2.441,74.707
1644359861.236,216.309,-3.418,45.410,15.625,35.156
1644359861.240,-101.074,4.883,16.602,14.648,41.504
1644359861.244,-167.480,22.949,1.465,12.695,63.965
1644359861.248,113.770,27.832,17.578,14.160,79.102
1644359861.252,212.402,12.207,16.602,50.781,35.645
1644359861.231,-38.574,-19.043,1.465,29.785,22.461
1644359861.235,-206.543,-10.742,21.484,24.902,-12.207
1644359861.239,63.477,28.809,8.789,-13.184,1.953
1644359861.243,249.512,24.902,7.324,-53.711,39.062
1644359861.247,61.035,16.113,39.062,-6.348,29.297
1644359861.251,-183.105,16.113,44.434,37.109,4.883
1644359861.255,-3.906,5.859,41.992,2.441,14.160
1644359861.258,232.422,3.418,21.484,2.441,-5.371
1644359861.262,93.750,-9.766,9.766,7.324,-19.043
1644359861.266,-185.059,7.324,42.969,22.461,65.918
1644359861.270,-101.562,21.484,26.367,23.926,87.402
1644359861.274,197.754,0.000,1.465,-21.484,-10.254
1644359861.236,201.172,5.371,39.551,-27.344,-41.992
1644359861.240,-68.359,15.625,48.340,2.930,-6.836
1644359861.244,-154.297,4.883,8.301,9.766,-17.090
1644359861.248,148.438,5.859,-4.395,4.395,-14.160
1644359861.252,272.949,9.766,-6.836,-4.883,21.973
1644359861.256,-9.766,17.578,2.930,-22.949,4.395
1644359861.260,-228.516,8.789,14.160,3.418,34.668
1644359861.263,28.320,10.742,35.645,18.555,80.566
1644359861.267,245.117,34.668,40.039,7.324,35.645
1644359861.271,87.891,14.160,28.320,-56.641,15.625
1644359861.275,-184.082,10.742,32.227,-41.016,26.855
1644359861.279,-59.570,12.695,31.738,-35.156,-20.996
1644359861.242,226.074,14.648,20.508,-45.898,-24.414
1644359861.246,139.648,10.254,-7.324,-47.852,40.527
1644359861.250,-157.227,1.953,18.066,-13.672,34.180
1644359861.254,-116.699,17.090,40.527,13.184,-17.578
1644359861.258,187.988,25.391,-3.906,0.488,1.465
1644359861.262,217.285,14.160,16.602,-15.137,53.223
1644359861.266,-78.125,13.184,52.734,-36.621,96.680
1644359861.269,-183.594,14.648,48.340,-17.090,78.613
1644359861.273,150.879,0.977,21.484,-16.602,8.789
1644359861.277,287.598,-7.812,-9.766,-27.832,-0.977
1644359861.281,49.805,14.160,19.531,-25.879,-4.883
1644359861.285,-188.965,11.230,28.320,1.465,2.930
1644359861.275,7.324,18.066,29.297,-21.484,17.578
1644359861.279,258.301,31.738,46.875,-13.672,37.109
1644359861.283,91.797,7.812,27.832,-27.344,15.137
1644359861.287,-193.848,-9.277,23.926,-17.578,-7.324
1644359861.291,-55.176,5.859,17.578,-17.578,49.316
1644359861.295,220.703,10.254,11.230,-45.410,83.984
1644359861.299,203.613,13.184,29.785,-46.875,46.387
1644359861.302,-65.918,4.883,25.879,12.207,56.641
1644359861.306,-140.625,-10.742,27.832,33.691,69.824
1644359861.310,112.305,10.254,30.273,-22.461,64.941
1644359861.314,190.918,13.184,33.691,-23.926,49.316
1644359861.318,-40.527,19.043,12.207,14.648,34.668
1644359861.293,-149.902,19.043,-3.418,23.926,34.668
1644359861.297,99.609,15.137,23.926,7.812,-7.324
1644359861.301,230.957,23.926,53.711,7.812,9.277
1644359861.305,40.527,-10.742,12.695,-10.742,32.227
1644359861.309,-191.895,-5.371,0.977,33.691,-4.395
1644359861.313,8.301,31.250,62.012,35.645,23.926
1644359861.317,229.492,11.230,36.621,-20.020,51.758
1644359861.320,120.605,1.953,20.508,-40.527,56.152
1644359861.324,-156.250,8.301,31.738,1.953,38.086
1644359861.328,-95.703,11.719,20.508,5.859,28.809
1644359861.332,187.012,20.996,-5.859,-14.160,24.414
1644359861.336,164.551,10.742,3.418,-17.090,14.160
1644359861.296,-108.887,-20.996,20.508,2.441,13.184
1644359861.300,-135.742,-6.348,7.812,19.043,26.367
1644359861.304,158.203,28.809,19.043,0.977,25.391
1644359861.308,226.562,28.320,41.016,-8.301,12.695
1644359861.312,-22.949,28.320,57.129,21.973,-19.531
1644359861.316,-165.527,22.949,49.805,46.387,-8.301
1644359861.320,105.469,17.090,23.438,11.230,86.914
1644359861.323,293.945,14.160,22.949,12.207,73.242
1644359861.327,100.586,3.418,32.227,25.391,50.781
1644359861.331,-185.547,-9.277,19.531,60.059,69.824
1644359861.335,-44.922,-1.465,21.484,18.066,43.945
1644359861.339,276.367,28.809,28.320,18.066,23.438
1644359861.411,212.402,30.273,21.973,13.672,23.438
1644359861.415,-139.648,4.395,31.738,-8.301,42.480
1644359861.419,-123.047,7.812,37.598,-0.488,33.691
1644359861.423,187.500,22.949,25.879,-7.812,-15.137
1644359861.427,192.871,24.414,38.086,4.395,4.395
1644359861.431,-103.516,-8.789,30.273,16.113,52.734
1644359861.435,-172.852,3.906,14.160,26.367,20.996
1644359861.438,142.090,22.949,21.973,-6.348,-5.859
1644359861.442,261.230,-4.883,28.809,-9.277,32.715
1644359861.446,-1.953,10.254,29.297,6.348,25.879
1644359861.450,-203.613,21.973,34.180,17.090,14.648
1644359861.454,48.828,24.414,27.344,11.719,83.496
1644359861.548,270.996,35.156,10.742,29.785,61.035
1644359861.552,104.004,9.277,12.207,20.020,-9.277
1644359861.556,-196.777,8.789,10.254,39.551,53.223
1644359861.560,-73.242,25.391,14.648,29.785,110.352
1644359861.564,249.023,20.996,39.062,18.555,97.168
1644359861.568,187.012,1.465,34.180,32.715,57.617
1644359861.572,-150.391,-1.953,18.066,63.965,-23.438
1644359861.575,-140.137,17.090,18.555,51.758,-29.297
1644359861.579,199.219,21.484,28.320,3.418,23.926
1644359861.583,243.652,17.578,26.367,-7.324,60.547
1644359861.587,-41.016,9.766,9.277,15.625,59.570
1644359861.591,-124.023,15.625,5.859,27.832,4.883
1644359861.576,124.023,13.672,26.367,13.184,-31.250
1644359861.580,214.844,22.949,41.504,-5.371,-18.555
1644359861.584,9.766,24.902,-3.906,-14.160,17.578
1644359861.588,-195.801,-18.555,0.488,25.879,44.434
1644359861.592,20.508,-29.297,45.898,-8.789,19.043
1644359861.596,236.816,30.273,21.973,-32.227,9.277
1644359861.600,106.934,35.645,6.836,-42.480,42.480
1644359861.603,-176.758,-1.465,11.230,-25.391,60.059
1644359861.607,-84.473,-0.977,24.414,-6.836,21.973
1644359861.611,176.758,25.879,28.809,-2.441,34.180
1644359861.615,122.559,-2.441,16.602,11.230,55.664
1644359861.619,-140.625,-32.227,0.000,23.926,58.105
1644359861.591,-126.953,11.719,-4.395,33.203,22.949
1644359861.595,204.590,21.973,9.766,8.789,-1.465
1644359861.599,243.164,5.859,40.039,-6.348,36.621
1644359861.603,-42.480,13.184,46.875,17.578,1.953
1644359861.607,-189.941,19.531,24.902,34.668,15.625
1644359861.611,84.961,10.742,6.348,-9.277,53.711
1644359861.615,261.719,16.113,18.555,-26.367,55.176
1644359861.618,30.273,12.695,19.043,-16.602,51.270
1644359861.622,-213.379,-10.742,5.859,20.020,66.895
1644359861.626,2.441,-11.719,15.625,22.461,65.918
1644359861.630,262.207,13.184,31.250,19.531,31.250
1644359861.634,120.117,10.254,23.438,-5.859,37.598
1644359861.620,-174.805,14.160,14.648,-0.488,36.621
1644359861.624,-63.965,24.902,-1.465,9.277,33.691
1644359861.628,229.004,17.578,-7.812,6.836,34.668
1644359861.632,192.383,-7.812,7.324,-2.930,45.898
1644359861.636,-110.352,-23.438,20.508,11.230,49.316
1644359861.640,-182.617,-3.418,39.551,23.438,99.121
1644359861.644,106.934,19.043,49.316,-6.836,100.586
1644359861.647,204.102,9.766,35.645,-9.766,45.898
1644359861.651,-48.340,-3.906,22.461,-6.348,38.574
1644359861.655,-206.543,6.836,2.441,21.973,35.156
1644359861.659,60.059,4.395,-18.555,-6.348,5.859
1644359861.663,272.949,16.602,9.766,-19.531,15.137
1644359861.625,72.754,9.766,36.621,-5.371,61.035
1644359861.629,-222.168,-17.090,34.668,17.578,60.059
1644359861.633,-31.250,-13.672,45.898,27.832,22.949
1644359861.637,247.070,-1.465,20.996,29.785,-3.906
1644359861.641,128.906,28.809,7.812,-8.789,-2.930
1644359861.645,-171.387,32.715,29.297,-19.043,52.246
1644359861.649,-123.047,3.906,28.809,3.418,23.438
1644359861.652,162.109,0.488,15.137,-3.906,3.906
1644359861.656,184.570,11.230,30.273,-20.508,7.324
1644359861.660,-108.398,-7.324,30.273,-4.395,-42.969
1644359861.664,-203.125,8.789,-3.418,1.465,-2.930
1644359861.668,115.234,30.273,-10.254,-17.578,4.883
1644359861.630,255.371,22.949,28.320,7.324,-13.672
1644359861.634,-5.371,2.930,43.457,9.766,33.203
1644359861.638,-195.312,-2.930,45.410,15.625,31.738
1644359861.642,97.168,15.625,26.367,17.578,32.715
1644359861.646,268.555,19.531,-3.418,28.809,82.520
1644359861.650,42.480,9.766,11.230,16.113,51.758
1644359861.654,-207.031,-0.488,22.461,5.859,15.137
1644359861.657,-63.477,-21.973,38.086,-9.277,55.664
1644359861.661,194.336,-4.395,24.902,0.000,32.715
1644359861.665,146.973,40.527,-6.348,12.207,14.648
1644359861.669,-111.816,0.977,12.695,25.879,82.520
1644359861.673,-116.211,4.883,37.598,19.043,96.680
1644359861.680,152.344,33.691,22.949,8.301,70.801
1644359861.684,182.617,29.297,16.113,14.648,24.414
1644359861.688,-83.496,23.438,20.508,30.762,5.371
1644359861.692,-160.156,0.488,16.602,44.922,8.789
1644359861.696,115.234,-4.883,11.230,33.203,-7.812
1644359861.700,259.277,17.578,5.859,11.719,9.277
1644359861.704,76.172,23.438,15.625,-22.461,-8.789
1644359861.707,-186.523,6.836,34.668,5.371,18.555
1644359861.711,-11.719,-0.977,21.973,20.508,33.691
1644359861.715,229.980,33.203,5.859,28.809,-11.719
1644359861.719,125.977,41.016,14.648,19.531,29.785
1644359861.723,-132.812,3.906,8.301,38.086,47.852
1644359861.743,-56.641,0.000,22.461,24.414,46.875
1644359861.747,210.938,30.762,36.133,-9.766,22.949
1644359861.751,169.434,42.969,21.484,-22.461,33.203
1644359861.755,-135.254,37.598,6.348,-0.977,60.059
1644359861.759,-144.043,-15.137,6.348,3.906,29.297
1644359861.763,165.039,-22.949,20.508,0.488,-13.672
1644359861.767,217.285,34.180,3.906,16.113,15.625
1644359861.770,-52.734,30.273,15.625,-2.930,70.312
1644359861.774,-158.691,29.785,53.223,-5.371,97.168
1644359861.778,132.324,21.973,70.312,-6.348,49.805
1644359861.782,234.375,12.207,40.527,-21.484,0.488
1644359861.786,-14.648,23.438,-1.465,-31.738,24.902
1644359861.831,-225.098,-10.254,2.930,34.180,83.496
1644359861.835,-11.230,-7.324,-6.836,-1.953,76.172
1644359861.839,214.355,33.691,6.348,-51.270,40.039
1644359861.843,100.586,40.527,49.805,-30.273,72.754
1644359861.847,-166.016,17.090,42.969,26.367,66.895
1644359861.851,-80.078,-7.324,21.973,10.742,44.434
1644359861.855,240.234,11.230,13.184,-31.738,79.590
1644359861.858,240.723,8.789,1.953,-31.738,31.250
1644359861.862,-103.027,-13.184,3.418,-16.113,-6.348
1644359861.866,-185.059,0.977,28.320,-21.484,7.324
1644359861.870,144.531,29.297,50.781,-46.387,-21.484
1644359861.874,236.816,29.297,41.992,-34.668,-15.625
1644359861.910,-36.621,5.859,14.648,-9.277,3.906
1644359861.914,-187.988,13.184,15.137,2.930,-25.391
1644359861.918,57.617,40.527,8.789,-29.785,-66.406
1644359861.922,243.652,17.090,0.000,-11.230,-11.719
1644359861.926,79.102,14.648,18.066,2.930,71.289
1644359861.930,-172.852,22.461,20.996,7.324,62.500
1644359861.934,-15.137,17.090,32.715,-5.371,54.688
1644359861.937,221.680,12.695,41.992,-9.277,55.664
1644359861.941,156.250,-1.465,-2.441,-21.973,20.020
1644359861.945,-103.516,20.508,-38.086,-20.020,22.949
1644359861.949,-101.562,23.926,22.949,-23.926,37.109
1644359861.953,160.645,-1.953,49.805,-59.082,2.930
1644359861.936,166.992,21.973,32.227,-84.473,5.859
1644359861.940,-122.070,26.855,40.039,-65.918,46.387
1644359861.944,-193.848,5.859,24.414,-58.594,68.848
1644359861.948,123.535,21.484,20.996,-93.262,49.316
1644359861.952,263.672,26.855,21.484,-69.824,4.395
1644359861.956,2.930,10.254,1.953,-50.293,34.180
1644359861.960,-205.566,5.371,-14.160,-20.996,71.289
1644359861.963,47.852,-0.977,0.000,-39.062,-2.441
1644359861.967,250.977,-8.301,12.207,-52.246,16.113
1644359861.971,69.824,23.438,20.996,-48.828,56.641
1644359861.975,-191.895,38.086,50.293,-11.719,65.430
1644359861.979,-22.461,29.785,52.734,-21.973,41.016
1644359861.950,252.930,35.645,32.227,-34.668,36.621
1644359861.954,138.672,19.531,12.207,-16.602,50.293
1644359861.958,-172.363,9.277,-6.836,-5.371,14.648
1644359861.962,-141.113,13.184,5.371,-4.883,51.270
1644359861.966,180.664,15.137,23.926,-20.996,87.402
1644359861.970,236.816,23.438,40.527,-23.438,63.477
1644359861.974,-40.039,29.297,60.059,-0.977,33.203
1644359861.977,-144.043,3.906,31.738,11.230,31.250
1644359861.981,102.539,8.301,21.484,-22.461,54.199
1644359861.985,200.684,36.133,29.785,-44.434,28.809
1644359861.989,-2.930,14.648,30.273,-20.996,2.441
1644359861.993,-204.102,6.836,24.414,-7.812,-6.348
1644359861.955,34.668,41.504,26.367,-37.109,-16.602
1644359861.959,277.344,38.086,18.066,-11.230,68.848
1644359861.963,149.902,20.020,7.812,-8.789,96.191
1644359861.967,-149.902,20.996,16.602,-5.859,66.406
1644359861.971,-77.148,16.602,13.672,-10.742,106.934
1644359861.975,185.059,10.254,19.043,-23.438,44.434
1644359861.979,170.410,0.488,59.082,-20.020,30.762
1644359861.982,-101.562,-0.488,56.152,2.441,68.359
1644359861.986,-116.699,20.020,14.648,2.930,74.219
1644359861.990,174.805,31.250,15.137,-17.090,67.871
1644359861.994,201.660,32.227,18.555,5.859,16.113
1644359861.998,-63.477,22.461,9.766,29.785,31.250
1644359862.025,-177.246,8.789,-2.441,31.738,86.426
1644359862.029,98.145,22.949,24.414,-0.488,82.031
1644359862.033,250.977,11.719,40.039,1.953,6.348
1644359862.037,48.340,10.742,33.203,4.883,-5.859
1644359862.041,-193.359,37.109,37.598,11.719,1.953
1644359862.045,-5.859,34.668,23.438,-5.859,20.020
1644359862.049,228.027,31.738,11.230,1.465,28.320
1644359862.052,114.258,26.367,22.949,-6.348,-24.414
1644359862.056,-163.574,16.602,29.297,9.766,41.016
1644359862.060,-101.074,11.230,22.949,9.766,107.910
1644359862.064,199.707,9.766,20.508,-1.953,78.613
1644359862.068,197.266,10.254,23.438,-9.766,36.133
1644359862.041,-110.352,15.625,20.996,15.137,75.684
1644359862.045,-150.879,19.531,12.207,43.945,100.586
1644359862.049,155.273,23.926,-2.441,10.254,24.902
1644359862.053,262.207,24.902,-1.953,7.324,9.766
1644359862.057,-12.695,31.250,21.484,1.953,38.086
1644359862.061,-221.191,26.367,29.297,0.000,57.129
1644359862.065,38.086,20.996,30.273,-22.461,1.953
1644359862.068,223.145,10.742,21.973,-28.809,-50.781
1644359862.072,41.016,8.301,18.066,-29.785,11.230
1644359862.076,-191.895,3.418,18.066,-2.930,2.441
1644359862.080,-23.926,9.277,22.461,-8.789,-31.250
1644359862.084,222.656,33.691,19.043,-12.695,49.805
1644359862.265,118.652,32.227,22.949,-23.438,-0.977
1644359862.269,-172.852,21.484,30.273,-15.137,16.113
1644359862.273,-120.117,11.719,26.855,-20.020,84.473
1644359862.277,175.293,18.555,30.273,-37.109,62.012
1644359862.281,181.641,15.625,29.297,-58.105,27.832
1644359862.285,-103.516,1.465,25.391,-71.289,-6.836
1644359862.289,-152.344,-9.766,23.438,-58.105,42.969
1644359862.292,130.371,12.207,23.926,-62.012,17.090
1644359862.296,170.898,24.414,29.297,-54.688,2.441
1644359862.300,-94.727,1.465,22.461,-60.059,-11.719
1644359862.304,-280.762,2.441,11.230,-61.523,1.953
1644359862.308,-41.992,17.090,22.949,-86.426,41.016
1644359862.270,142.578,20.020,35.645,-105.957,27.344
1644359862.274,-34.668,22.461,37.109,-130.371,-9.277
1644359862.278,-286.621,25.879,32.227,-112.793,6.348
1644359862.282,-134.277,27.832,25.879,-135.742,26.855
1644359862.286,116.211,37.598,28.320,-164.062,-23.926
1644359862.290,-20.020,29.297,31.250,-195.312,-0.977
1644359862.294,-358.887,20.508,36.133,-208.008,41.992
1644359862.297,-380.859,25.879,54.688,-229.004,71.777
1644359862.301,-112.793,38.086,50.781,-284.668,58.105
1644359862.305,-85.449,48.828,31.738,-314.941,28.809
1644359862.309,-366.211,61.035,30.762,-318.359,34.180
1644359862.313,-485.352,65.430,28.809,-310.059,21.484
1644359862.275,-214.844,82.031,27.344,-338.379,6.348
1644359862.279,-86.426,95.703,37.598,-358.887,0.000
1644359862.283,-295.410,84.473,33.203,-345.703,30.273
1644359862.287,-507.812,78.613,14.648,-313.965,51.270
1644359862.291,-280.762,90.332,12.207,-323.730,22.949
1644359862.295,-79.102,99.609,16.113,-318.359,46.875
1644359862.299,-256.836,103.027,23.926,-308.105,67.383
1644359862.302,-524.414,102.051,23.926,-279.785,19.531
1644359862.306,-405.762,112.305,16.602,-295.898,27.344
1644359862.310,-82.031,129.883,19.043,-318.848,107.910
1644359862.314,-96.191,126.953,20.020,-297.363,104.980
1644359862.318,-403.809,114.746,13.184,-275.879,90.820
1644359862.295,-398.926,113.770,9.277,-288.086,98.145
1644359862.299,-44.434,123.535,5.371,-321.777,55.664
1644359862.303,-9.766,127.441,9.766,-291.992,21.484
1644359862.307,-323.242,117.188,17.578,-240.234,-5.859
1644359862.311,-445.312,107.910,13.184,-227.539,-2.441
1644359862.315,-149.414,128.418,9.277,-235.352,12.695
1644359862.319,16.602,132.812,9.766,-206.543,-2.930
1644359862.322,-155.762,112.793,7.812,-201.660,13.672
1644359862.326,-377.441,108.398,7.324,-198.242,43.457
1644359862.330,-219.727,123.047,3.906,-213.867,30.273
1644359862.334,55.664,129.883,3.418,-208.984,23.438
1644359862.338,-55.664,111.816,11.230,-191.895,24.902
1644359862.311,-365.234,89.355,11.719,-170.898,34.180
1644359862.315,-251.465,94.727,8.301,-166.504,30.762
1644359862.319,82.031,111.328,0.977,-164.551,58.594
1644359862.323,76.172,106.934,2.930,-129.395,44.922
1644359862.327,-250.977,95.703,6.836,-93.262,25.391
1644359862.331,-312.988,88.379,1.953,-119.141,25.391
1644359862.335,19.531,95.215,4.883,-139.648,-9.766
1644359862.338,120.117,93.262,8.301,-125.488,5.859
1644359862.342,-147.949,77.637,12.695,-113.281,10.742
1644359862.346,-287.598,75.684,10.254,-110.352,58.594
1644359862.350,-18.555,84.961,5.859,-141.113,13.184
1644359862.354,145.020,93.750,12.207,-122.070,19.043
1644359862.329,-16.602,86.914,14.160,-92.773,89.355
1644359862.333,-263.672,72.754,12.207,-60.059,64.453
1644359862.337,-116.211,75.195,13.672,-80.566,16.602
1644359862.341,139.160,75.195,17.578,-91.309,42.480
1644359862.345,27.832,67.871,18.066,-89.844,58.105
1644359862.349,-270.996,55.176,17.578,-95.215,18.066
1644359862.353,-205.566,69.824,18.555,-93.262,43.457
1644359862.356,120.605,84.961,15.137,-74.219,52.734
1644359862.360,166.992,80.566,13.184,-75.195,24.414
1644359862.364,-164.062,76.660,12.207,-79.590,-11.230
1644359862.368,-299.316,75.195,8.789,-61.523,-12.207
1644359862.372,22.461,72.754,9.766,-77.637,11.230
1644359862.370,146.484,66.895,16.602,-84.961,21.973
1644359862.374,-113.281,63.965,17.090,-83.008,-7.324
1644359862.378,-291.504,62.988,16.602,-75.195,37.598
1644359862.382,-37.109,66.895,16.113,-117.188,56.641
1644359862.386,173.828,76.172,9.277,-122.559,-13.672
1644359862.390,19.043,75.195,13.184,-80.566,-17.090
1644359862.394,-226.562,64.453,20.508,-25.879,11.719
1644359862.397,-91.309,49.805,20.508,-16.602,50.781
1644359862.401,185.059,52.246,18.555,-20.996,56.152
1644359862.405,116.699,75.684,21.484,-23.438,21.484
1644359862.409,-182.129,70.312,27.832,-14.648,51.758
1644359862.413,-163.086,61.035,26.855,-22.461,75.195
1644359862.446,106.934,65.918,22.949,-42.969,58.594
1644359862.450,112.793,62.500,27.344,-37.598,30.762
1644359862.454,-145.020,51.758,31.250,-26.367,-19.531
1644359862.458,-205.078,46.875,26.367,-27.344,18.555
1644359862.462,84.473,51.270,29.297,-35.156,21.484
1644359862.466,159.668,53.223,32.715,-21.973,2.930
1644359862.470,-79.590,34.180,28.320,-32.715,62.988
1644359862.473,-262.207,33.691,26.855,-10.254,87.402
1644359862.477,-30.762,38.574,24.414,-25.391,98.633
1644359862.481,181.152,30.762,21.484,-28.809,26.367
1644359862.485,45.898,41.504,23.438,-11.719,-17.578
1644359862.489,-209.961,42.969,24.414,-4.395,13.672
1644359862.507,-92.773,38.086,17.578,-40.039,-4.883
1644359862.511,182.617,35.156,19.043,-34.180,10.254
1644359862.515,109.375,38.574,23.926,-20.996,35.645
1644359862.519,-195.801,28.320,23.438,-12.207,44.434
1644359862.523,-189.941,16.602,19.043,3.906,-3.418
1644359862.527,129.395,37.109,18.555,-0.977,29.297
1644359862.531,146.973,45.898,17.090,-3.418,35.156
1644359862.534,-126.953,24.414,22.949,9.277,-21.973
1644359862.538,-250.488,9.766,29.785,32.715,4.395
1644359862.542,15.137,12.207,20.996,5.859,9.766
1644359862.546,196.289,28.809,20.996,5.859,-9.277
1644359862.550,-22.949,24.902,24.902,15.137,-4.883
1644359862.510,-282.715,6.836,21.484,66.406,8.301
1644359862.514,-72.266,13.184,22.949,69.336,11.230
1644359862.518,159.668,26.855,23.926,34.180,0.488
1644359862.522,38.574,19.043,25.879,20.508,-2.930
1644359862.526,-203.613,5.371,26.855,54.688,36.133
1644359862.530,-131.836,10.254,27.344,62.988,55.664
1644359862.534,119.629,23.438,29.297,47.852,26.855
1644359862.537,118.652,15.625,33.203,26.855,-7.812
1644359862.541,-168.457,-23.926,29.785,21.484,20.996
1644359862.545,-243.652,-15.137,24.902,26.855,41.992
1644359862.549,34.180,29.297,16.113,-4.395,48.828
1644359862.553,106.445,29.297,11.719,-15.625,51.758
1644359862.581,-123.047,21.484,18.066,-11.719,56.152
1644359862.585,-264.160,-24.902,24.902,23.926,46.387
1644359862.589,6.348,-24.414,33.691,17.578,6.348
1644359862.593,203.125,36.133,13.184,2.441,56.152
1644359862.597,-14.648,45.410,3.906,7.812,41.992
1644359862.601,-288.086,20.996,20.508,31.250,25.879
1644359862.605,-107.422,23.438,25.391,21.484,59.082
1644359862.608,182.129,16.113,31.738,14.648,-19.531
1644359862.612,89.355,-17.578,33.203,-13.672,-13.672
1644359862.616,-211.914,17.578,22.461,3.418,77.148
1644359862.620,-164.551,33.203,22.949,20.508,27.344
1644359862.624,93.750,-1.465,16.113,0.488,-21.973
1644359862.610,110.840,-7.812,17.090,-5.371,11.230
1644359862.614,-145.508,5.371,17.578,12.207,105.957
1644359862.618,-195.312,-32.227,18.555,29.785,164.062
1644359862.622,96.191,-47.852,16.602,4.395,87.891
1644359862.626,167.480,1.953,15.137,-2.441,66.895
1644359862.630,-82.031,29.785,28.809,15.137,41.504
1644359862.634,-274.902,19.043,18.555,8.301,-21.973
1644359862.637,-22.461,4.395,13.672,-40.527,11.230
1644359862.641,171.875,-0.488,17.578,-28.809,65.430
1644359862.645,-2.930,-14.160,18.066,-6.836,64.453
1644359862.649,-240.234,-24.902,23.438,20.020,26.855
1644359862.653,-116.211,-17.090,20.996,10.742,3.906
1644359862.687,146.484,-7.812,20.508,39.551,-5.371
1644359862.691,94.238,3.906,15.137,43.945,-7.812
1644359862.695,-210.449,-10.254,10.254,23.438,45.410
1644359862.699,-165.527,-3.906,34.180,17.578,28.320
1644359862.703,135.742,-3.418,8.301,5.371,-22.949
1644359862.707,145.020,0.000,-11.230,17.578,45.898
1644359862.711,-145.508,8.789,12.695,5.371,55.176
1644359862.714,-223.633,-24.414,16.602,23.926,18.066
1644359862.718,86.426,20.996,34.180,28.809,4.395
1644359862.722,187.012,15.137,21.484,1.953,36.621
1644359862.726,-36.621,-45.410,20.996,11.719,46.875
1644359862.730,-244.629,1.465,29.785,41.992,7.324
1644359862.731,-39.551,40.039,18.555,40.527,-14.160
1644359862.735,190.918,10.254,30.273,85.938,14.160
1644359862.739,83.008,-19.531,20.996,80.566,51.270
1644359862.743,-178.223,2.441,1.953,68.848,31.250
1644359862.747,-96.680,5.371,20.996,53.223,35.645
1644359862.751,176.270,13.184,22.461,51.758,27.832
1644359862.755,141.602,8.789,30.273,83.008,15.137
1644359862.758,-158.203,-14.648,26.855,54.199,56.152
1644359862.762,-197.754,-7.324,-5.859,15.137,56.641
1644359862.766,102.051,5.371,-7.324,51.758,52.246
1644359862.770,185.547,5.859,-22.461,88.379,63.477
1644359862.774,-54.688,-0.977,-19.043,104.004,64.453
1644359862.762,-138.672,-19.043,19.043,131.348,9.277
1644359862.766,130.859,-0.488,21.973,108.887,-33.691
1644359862.770,237.793,5.859,0.488,85.938,4.395
1644359862.774,24.414,29.785,-31.738,74.707,30.273
1644359862.778,-185.547,38.574,-1.953,109.863,71.289
1644359862.782,25.391,22.461,23.926,121.094,67.871
1644359862.786,292.969,20.508,20.020,136.719,42.480
1644359862.789,155.762,19.531,19.531,140.625,79.590
1644359862.793,-104.492,-0.488,19.531,196.289,15.137
1644359862.797,8.301,-8.301,17.578,213.867,0.488
1644359862.801,284.668,-9.766,9.277,186.035,58.105
1644359862.805,275.879,-14.648,-1.465,174.805,1.953
1644359862.880,12.207,-43.457,-20.996,155.762,-24.414
1644359862.884,-56.152,0.000,-14.160,133.301,29.785
1644359862.888,207.520,68.359,-15.137,93.750,29.785
1644359862.892,284.668,54.199,-34.668,106.445,6.348
1644359862.896,65.918,73.730,1.953,134.277,-1.953
1644359862.900,-85.449,51.758,21.973,139.648,-13.672
1644359862.904,163.086,3.906,14.648,115.723,54.199
1644359862.907,368.164,-3.418,10.254,110.352,49.805
1644359862.911,153.809,40.039,4.395,112.793,19.531
1644359862.915,-116.699,38.574,3.418,147.949,19.531
1644359862.919,72.266,44.922,0.977,139.160,8.301
1644359862.923,342.773,32.715,5.371,141.113,54.688
1644359862.885,253.418,12.207,5.371,161.621,67.871
1644359862.889,5.371,-49.316,4.883,180.176,74.707
1644359862.893,57.617,9.766,17.090,164.062,33.691
1644359862.897,287.109,96.191,-8.789,99.609,17.090
1644359862.901,305.176,32.227,-40.039,79.590,34.180
1644359862.905,22.949,18.066,-41.992,107.910,48.340
1644359862.909,-77.148,42.969,-6.836,125.000,69.824
1644359862.912,201.172,37.109,18.555,105.469,38.574
1644359862.916,314.941,33.691,25.879,128.418,33.691
1644359862.920,91.309,1.953,36.133,140.625,23.926
1644359862.924,-100.586,22.461,36.621,140.625,15.137
1644359862.928,152.832,12.695,32.715,137.695,-1.465
1644359862.941,353.027,10.742,21.484,128.418,29.785
1644359862.945,144.043,78.125,7.324,113.281,40.039
1644359862.949,-113.770,80.566,13.184,128.418,66.406
1644359862.953,50.293,66.406,17.090,117.188,66.406
1644359862.957,306.641,60.547,13.184,127.930,31.250
1644359862.961,217.285,36.133,8.301,88.379,41.016
1644359862.965,-69.336,30.762,8.789,93.750,42.480
1644359862.968,-45.410,50.781,10.742,114.258,21.973
1644359862.972,286.133,10.742,13.672,83.008,11.230
1644359862.976,293.457,-11.230,3.418,80.566,45.410
1644359862.980,-11.719,45.410,-7.324,91.309,40.527
1644359862.984,-125.000,62.012,6.836,101.074,30.273
1644359862.945,157.227,40.039,22.949,76.660,51.758
1644359862.949,320.801,23.926,14.160,98.145,52.246
1644359862.953,67.383,21.973,0.977,142.090,-6.348
1644359862.957,-165.039,29.297,3.418,147.461,1.953
1644359862.961,44.434,20.020,15.137,74.219,8.301
1644359862.965,242.188,-1.465,30.762,40.527,-15.625
1644359862.969,102.051,16.602,47.363,41.992,20.996
1644359862.972,-154.785,6.348,60.547,104.004,6.348
1644359862.976,-62.500,-5.371,43.457,86.426,20.508
1644359862.980,182.617,-6.348,28.320,53.223,21.484
1644359862.984,148.438,-1.465,32.227,88.867,4.883
1644359862.988,-141.602,-4.883,32.715,97.168,26.367
1644359862.986,-138.184,-3.906,35.645,82.520,60.059
1644359862.990,203.125,12.695,45.898,89.844,35.645
1644359862.994,253.906,-28.320,35.156,91.309,41.504
1644359862.998,-58.594,-39.551,10.742,84.961,72.754
1644359863.002,-188.965,36.621,12.695,114.258,62.012
1644359863.006,82.520,15.137,5.859,67.383,57.129
1644359863.010,201.660,-7.812,-10.254,52.734,7.324
1644359863.013,17.578,18.066,-7.812,56.641,50.781
1644359863.017,-177.734,18.555,-0.977,65.430,80.566
1644359863.021,31.250,-2.930,-4.883,109.863,27.344
1644359863.025,267.090,-47.363,-34.180,114.746,36.133
1644359863.029,143.066,5.371,5.371,68.359,-1.953
1644359863.060,-167.969,18.555,64.941,50.293,11.719
1644359863.064,-119.629,-4.883,57.129,31.250,41.504
1644359863.068,204.102,1.465,47.363,35.645,14.648
1644359863.072,190.430,-0.977,42.969,45.898,-16.602
1644359863.076,-121.582,-13.184,37.109,61.035,-5.371
1644359863.080,-141.113,-26.855,28.320,68.848,7.812
1644359863.084,166.992,-7.812,18.555,41.992,13.672
1644359863.087,218.262,-16.602,17.578,37.109,0.000
1644359863.091,-52.734,-19.043,24.414,46.387,-7.324
1644359863.095,-201.172,-0.488,6.348,46.875,7.324
1644359863.099,75.684,20.996,13.184,49.805,18.555
1644359863.103,241.699,50.293,22.461,50.293,44.922
1644359863.107,24.902,2.930,4.395,14.160,12.695
1644359863.111,-226.562,-27.344,23.438,41.992,-2.441
1644359863.115,-82.031,-7.324,0.488,14.648,24.902
1644359863.119,189.453,23.438,14.160,-13.672,12.207
1644359863.123,122.559,16.602,45.410,-8.301,6.836
1644359863.127,-191.895,-16.113,0.977,12.207,28.809
1644359863.131,-133.301,-8.301,8.301,18.555,35.645
1644359863.134,174.316,1.953,40.527,-0.977,42.480
1644359863.138,192.383,-36.621,37.109,21.973,62.500
1644359863.142,-86.914,-56.152,29.297,18.555,81.543
1644359863.146,-173.340,3.418,7.812,5.371,68.848
1644359863.150,102.539,9.766,-5.371,-7.812,27.344
1644359863.137,207.520,1.953,2.441,-9.277,13.672
1644359863.141,-26.367,25.391,16.602,3.418,56.152
1644359863.145,-203.613,19.043,24.414,24.902,79.590
1644359863.149,15.625,12.695,20.020,9.277,50.293
1644359863.153,217.773,9.766,24.414,25.879,40.039
1644359863.157,55.664,-36.133,19.043,23.926,5.371
1644359863.161,-209.473,-61.035,14.648,11.230,-2.441
1644359863.164,-47.852,-2.441,26.367,-3.906,36.133
1644359863.168,210.449,15.137,18.555,-12.207,35.156
1644359863.172,117.188,2.441,4.883,-51.270,-4.883
1644359863.176,-181.641,2.441,17.090,-40.527,-2.930
1644359863.180,-145.996,-2.930,23.926,-30.762,3.418
1644359863.211,158.203,8.301,25.879,-29.785,47.852
1644359863.215,206.543,3.418,47.852,0.977,56.152
1644359863.219,-68.359,-30.273,12.207,-28.320,-0.488
1644359863.223,-195.312,-29.297,12.207,-11.719,5.371
1644359863.227,71.289,-10.742,46.387,-28.809,-2.441
1644359863.231,194.336,10.254,28.320,-60.547,27.344
1644359863.235,-8.789,1.465,12.207,-57.617,72.266
1644359863.238,-180.664,9.766,14.648,-15.625,39.062
1644359863.242,39.062,22.949,30.273,-42.480,-12.695
1644359863.246,205.078,6.836,39.062,-50.781,-2.441
1644359863.250,48.340,-36.133,25.879,-34.180,67.871
1644359863.254,-186.523,-41.016,-3.418,5.371,41.992
1644359863.215,-94.238,11.230,31.738,6.836,35.645
1644359863.219,157.715,8.789,64.453,0.000,22.461
1644359863.223,128.906,4.883,45.410,-17.578,-5.371
1644359863.227,-164.062,-14.648,45.898,-20.996,16.602
1644359863.231,-197.754,-36.133,56.641,-21.973,18.555
1644359863.235,115.234,-47.363,49.316,-36.133,-0.488
1644359863.239,177.734,-47.852,32.715,-14.160,-5.859
1644359863.242,-65.918,-45.410,61.523,12.207,18.066
1644359863.246,-222.656,-48.340,71.289,16.113,60.547
1644359863.250,5.859,-42.969,54.199,-4.883,31.250
1644359863.254,182.617,-52.734,48.340,19.531,33.691
1644359863.258,-29.297,-63.965,45.898,46.387,76.660
1644359863.376,-259.277,-27.344,57.129,70.312,70.312
1644359863.380,-31.250,-11.230,59.082,13.672,61.035
1644359863.384,199.219,-11.719,67.871,14.160,79.102
1644359863.388,98.145,-37.598,0.977,83.984,57.617
1644359863.392,-152.344,-74.219,-39.551,128.418,44.922
1644359863.396,-109.375,-4.883,89.844,83.008,22.949
1644359863.400,143.066,27.832,106.934,23.926,16.113
1644359863.403,108.398,-7.812,68.848,34.668,32.227
1644359863.407,-151.855,-8.301,63.965,67.871,-3.418
1644359863.411,-185.059,-9.277,21.484,80.078,17.578
1644359863.415,100.586,-14.160,39.551,93.262,22.461
1644359863.419,207.031,-24.902,51.270,115.234,40.039
1644359863.380,-58.594,-11.230,42.969,97.656,34.180
1644359863.384,-201.172,14.160,49.316,100.098,24.902
1644359863.388,76.172,12.207,47.852,108.398,29.785
1644359863.392,236.328,10.742,34.180,122.070,28.320
1644359863.396,45.410,3.418,39.062,125.000,35.645
1644359863.400,-207.520,0.000,51.758,144.043,53.223
1644359863.404,-55.664,-20.020,57.129,138.184,37.109
1644359863.407,194.824,-22.461,41.016,123.535,17.578
1644359863.411,106.934,14.160,21.484,111.816,47.852
1644359863.415,-163.574,16.602,21.973,139.648,67.383
1644359863.419,-121.582,19.043,34.180,147.949,74.219
1644359863.423,161.621,18.555,25.879,160.645,20.996
1644359863.385,174.805,7.324,3.418,141.602,-1.953
1644359863.389,-82.031,3.418,18.555,125.977,21.973
1644359863.393,-184.082,9.766,50.781,136.230,43.457
1644359863.397,116.211,-8.789,44.434,164.551,43.457
1644359863.401,257.324,-41.504,6.348,160.645,58.105
1644359863.405,-34.668,10.254,13.672,137.207,83.496
1644359863.409,-245.117,51.270,49.316,118.652,46.875
1644359863.412,-10.742,32.227,34.668,48.828,0.977
1644359863.416,177.246,32.227,23.438,50.781,47.852
1644359863.420,30.273,18.066,38.574,70.801,78.125
1644359863.424,-194.336,0.977,32.715,134.277,38.574
1644359863.428,-61.523,3.906,31.738,115.234,62.988
1644359863.421,191.895,14.160,12.695,57.617,68.848
1644359863.425,121.094,-8.789,1.465,45.410,-15.137
1644359863.429,-168.457,-28.320,24.902,83.496,-48.340
1644359863.433,-137.695,-1.953,45.898,87.891,-15.137
1644359863.437,185.547,39.062,29.785,52.246,16.113
1644359863.441,215.332,34.180,27.832,46.387,50.781
1644359863.445,-64.941,-0.488,32.715,50.781,61.523
1644359863.448,-164.551,5.371,18.066,24.902,45.410
1644359863.452,112.793,16.113,21.973,-19.043,0.977
1644359863.456,220.703,15.625,23.438,-5.371,-1.465
1644359863.460,-10.254,2.441,9.766,-42.969,-2.441
1644359863.464,-197.266,-13.672,23.438,-101.074,41.016
1644359863.495,14.160,7.812,43.945,-141.602,33.203
1644359863.499,202.637,19.043,42.480,-187.500,-49.805
1644359863.503,62.012,1.465,22.461,-219.727,10.742
1644359863.507,-172.852,-13.184,10.742,-215.332,-2.930
1644359863.511,-63.477,15.625,15.137,-274.902,-50.781
1644359863.515,170.410,36.133,27.344,-285.645,1.953
1644359863.519,111.816,31.738,28.809,-251.953,96.191
1644359863.522,-164.551,28.320,36.133,-278.320,74.219
1644359863.526,-185.547,17.578,31.738,-319.336,34.180
1644359863.530,123.047,9.766,18.066,-339.844,43.457
1644359863.534,205.078,0.488,25.879,-331.055,24.902
1644359863.538,-52.246,-20.020,31.250,-347.656,45.898
1644359863.500,-200.684,-8.789,-2.441,-366.211,31.250
1644359863.504,44.434,37.598,13.184,-384.766,29.297
1644359863.508,192.383,51.758,62.988,-391.602,48.828
1644359863.512,-15.625,32.715,41.992,-391.602,-3.906
1644359863.516,-239.746,17.090,5.859,-345.703,1.953
1644359863.520,-30.273,8.301,29.785,-351.074,74.707
1644359863.524,199.219,11.719,50.293,-368.652,83.496
1644359863.527,92.285,5.371,40.039,-346.680,25.879
1644359863.531,-167.969,-5.859,17.090,-322.266,29.785
1644359863.535,-98.145,-4.883,18.555,-313.477,-5.371
1644359863.539,163.086,4.883,33.691,-314.941,-27.832
1644359863.543,114.258,29.297,17.090,-347.168,30.273
1644359863.602,-162.109,30.762,10.254,-324.707,0.488
1644359863.606,-180.176,19.043,2.441,-309.082,14.160
1644359863.610,109.375,26.367,23.438,-320.312,26.855
1644359863.614,187.988,20.996,31.738,-299.805,1.465
1644359863.618,-47.363,0.488,15.625,-260.742,-51.758
1644359863.622,-190.918,-2.441,-1.465,-222.168,-20.020
1644359863.626,57.129,3.906,17.578,-244.629,20.020
1644359863.629,211.426,6.836,21.973,-212.402,-18.555
1644359863.633,25.391,11.230,29.297,-131.836,-48.340
1644359863.637,-231.934,10.254,41.504,-47.852,-19.531
1644359863.641,-77.637,19.531,15.137,-15.137,1.465
1644359863.645,184.570,36.621,22.461,26.367,-9.277
1644359863.607,106.445,18.555,33.691,78.125,19.043
1644359863.611,-133.301,-0.977,15.625,104.004,86.426
1644359863.615,-97.168,7.812,2.441,118.164,46.387
1644359863.619,145.508,23.438,16.113,123.535,-27.832
1644359863.623,196.777,37.598,36.133,100.098,18.555
1644359863.627,-96.191,7.812,40.527,131.836,54.688
1644359863.631,-224.609,-1.953,35.645,172.363,36.621
1644359863.634,71.289,21.973,35.156,156.250,73.242
1644359863.638,166.016,26.367,31.250,166.016,72.754
1644359863.642,-72.266,14.160,26.855,165.039,57.617
1644359863.646,-213.379,16.602,28.809,207.520,90.332
1644359863.650,64.941,32.227,26.367,188.477,59.570
1644359863.692,223.633,26.855,23.926,155.762,47.363
1644359863.696,19.043,14.648,31.738,156.738,33.203
1644359863.700,-213.379,5.859,25.879,166.504,58.105
1644359863.704,-68.359,-2.930,26.367,101.562,67.383
1644359863.708,202.148,-0.488,23.438,62.012,33.203
1644359863.712,160.156,11.230,20.996,59.082,-7.812
1644359863.716,-143.555,12.695,30.273,64.453,-34.180
1644359863.719,-150.879,20.996,30.273,93.262,18.555
1644359863.723,141.113,17.578,23.926,76.660,-4.395
1644359863.727,163.574,18.555,32.715,39.062,-20.508
1644359863.731,-79.590,6.836,50.781,50.293,-4.395
1644359863.735,-184.082,10.254,56.641,116.699,4.883
1644359863.695,50.293,11.230,43.945,124.023,18.555
1644359863.699,201.172,10.254,37.109,93.750,40.039
1644359863.703,4.395,32.227,39.551,73.242,70.801
1644359863.707,-209.961,9.766,37.109,93.262,42.480
1644359863.711,-4.883,0.000,47.363,107.422,18.555
1644359863.715,221.680,4.883,53.223,114.746,51.758
1644359863.719,88.379,-6.348,22.949,135.254,-2.930
1644359863.722,-201.172,0.000,6.348,151.367,-32.715
1644359863.726,-94.238,16.113,22.949,90.332,4.883
1644359863.730,165.527,31.250,31.738,79.590,18.555
1644359863.734,132.324,21.484,46.875,88.867,23.926
1644359863.738,-129.395,-4.883,51.270,100.098,19.531
1644359863.781,-147.461,7.324,48.340,98.145,46.387
1644359863.785,134.277,32.715,30.762,88.379,10.254
1644359863.789,174.805,25.391,28.320,80.566,0.488
1644359863.793,-72.754,-8.789,47.852,115.723,80.566
1644359863.797,-171.387,-18.555,40.039,147.949,46.875
1644359863.801,90.820,28.809,37.598,73.730,41.016
1644359863.805,193.848,32.715,42.969,28.320,38.574
1644359863.808,-11.719,8.301,47.852,32.715,53.711
1644359863.812,-198.242,15.625,54.199,52.734,65.918
1644359863.816,-8.301,23.438,33.691,20.996,6.836
1644359863.820,205.078,26.855,15.625,25.391,70.312
1644359863.824,106.445,24.414,31.738,74.219,51.758
1644359863.826,-187.500,8.789,46.387,93.262,24.902
1644359863.830,-116.211,11.230,45.410,52.246,81.055
1644359863.834,180.176,10.742,45.898,75.684,68.848
1644359863.838,160.156,3.906,38.574,55.664,6.836
1644359863.842,-115.234,8.301,44.434,34.668,10.254
1644359863.846,-159.180,-0.488,48.828,60.059,17.090
1644359863.850,111.816,23.926,45.898,37.598,-8.789
1644359863.853,180.664,33.203,24.902,40.527,-1.953
1644359863.857,-54.688,-12.695,13.672,43.457,41.504
1644359863.861,-190.430,-9.277,29.785,70.801,80.566
1644359863.865,45.898,19.531,35.645,61.523,63.965
1644359863.869,213.379,18.066,22.461,12.207,41.016
1644359863.831,39.062,34.180,34.668,-24.902,27.344
1644359863.835,-197.754,21.973,63.965,-10.742,47.363
1644359863.839,-24.902,20.508,64.453,-12.695,38.574
1644359863.843,199.219,32.227,56.641,-9.766,3.906
1644359863.847,98.145,19.043,42.480,-7.812,-2.930
1644359863.851,-146.484,2.441,31.738,26.367,52.734
1644359863.855,-91.797,7.324,30.762,36.621,60.059
1644359863.858,166.016,3.906,30.762,25.879,25.879
1644359863.862,170.898,3.418,36.621,16.602,39.551
1644359863.866,-90.820,28.320,41.016,41.504,91.797
1644359863.870,-155.762,52.734,39.062,73.242,75.195
1644359863.874,124.023,38.574,55.176,43.457,19.531
1644359863.871,206.543,23.926,53.711,66.895,10.742
1644359863.875,-42.480,-1.953,45.410,93.750,45.898
1644359863.879,-221.680,-19.531,53.711,101.074,23.438
1644359863.883,24.902,26.855,45.410,67.383,37.109
1644359863.887,217.773,28.320,47.852,62.988,57.129
1644359863.891,47.852,4.395,53.223,52.734,42.480
1644359863.895,-221.680,-3.906,43.945,55.664,71.289
1644359863.898,-85.449,10.742,45.410,38.574,65.430
1644359863.902,185.059,27.344,35.645,25.391,47.852
1644359863.906,103.516,12.695,15.625,64.453,13.672
1644359863.910,-177.734,-0.488,20.508,95.215,7.324
1644359863.914,-144.531,12.695,54.688,81.055,21.484
1644359863.990,155.762,23.926,56.641,55.176,16.113
1644359863.994,193.359,37.598,34.668,13.184,12.207
1644359863.998,-98.633,25.391,27.832,-36.621,62.500
1644359864.002,-186.035,22.949,43.945,-24.902,33.691
1644359864.006,76.660,39.551,57.617,16.602,42.969
1644359864.010,161.621,15.137,38.574,27.344,72.266
1644359864.014,-41.992,-11.230,28.320,5.859,82.520
1644359864.017,-220.215,1.953,40.527,36.621,101.074
1644359864.021,0.000,36.133,30.762,30.762,67.383
1644359864.025,215.332,37.598,-0.977,47.852,52.734
1644359864.029,73.730,25.879,14.160,62.500,67.383
1644359864.033,-174.316,3.418,48.340,63.477,50.293
1644359863.995,-83.008,-7.812,41.504,31.738,53.223
1644359863.999,146.484,9.766,28.320,31.738,44.434
1644359864.003,87.402,20.508,44.434,60.547,30.273
1644359864.007,-146.973,12.207,40.039,90.820,20.996
1644359864.011,-141.113,-11.230,23.438,91.797,19.531
1644359864.015,102.051,6.348,33.203,35.645,21.973
1644359864.019,169.922,50.781,47.852,43.457,18.066
1644359864.022,-67.383,21.973,39.551,99.121,-6.348
1644359864.026,-197.266,-10.742,22.461,126.953,4.395
1644359864.030,70.312,10.742,7.812,95.703,43.945
1644359864.034,202.148,12.695,27.832,80.078,-2.930
1644359864.038,-11.719,18.555,47.852,49.805,-50.293
1644359864.035,-210.938,-8.789,43.945,94.727,-1.465
1644359864.039,-7.324,-42.969,50.293,93.262,51.270
1644359864.043,245.117,11.230,48.828,71.777,41.992
1644359864.047,115.723,41.504,39.551,76.660,1.465
1644359864.051,-214.844,21.484,42.480,107.422,31.250
1644359864.055,-145.996,11.230,27.832,83.496,50.293
1644359864.059,154.785,-10.742,25.391,65.918,59.082
1644359864.062,153.320,-6.836,51.270,62.988,10.254
1644359864.066,-125.977,27.344,58.594,46.875,5.859
1644359864.070,-151.367,26.367,48.828,70.312,27.832
1644359864.074,161.621,34.180,36.621,76.660,-17.578
1644359864.078,224.609,19.531,43.945,86.914,-5.859
1644359864.112,-46.387,-6.836,41.016,103.516,19.531
1644359864.116,-211.426,13.184,15.137,106.445,10.742
1644359864.120,54.199,25.879,35.156,55.664,48.340
1644359864.124,261.230,24.414,62.988,36.621,100.098
1644359864.128,38.086,17.090,59.570,45.410,41.016
1644359864.132,-228.027,-4.883,43.457,83.984,43.457
1644359864.136,-54.199,11.719,38.086,73.242,42.969
1644359864.139,206.055,36.133,37.109,93.262,-18.555
1644359864.143,144.043,36.621,31.738,102.051,-18.555
1644359864.147,-123.047,11.719,51.270,54.688,33.203
1644359864.151,-94.238,-3.418,65.918,16.113,100.098
1644359864.155,185.547,41.504,59.082,35.645,68.359
1644359864.117,155.762,38.086,20.020,6.836,29.785
1644359864.121,-142.090,13.672,28.320,-28.320,28.320
1644359864.125,-174.805,10.254,59.570,7.324,32.227
1644359864.129,106.934,-20.508,40.527,-6.348,12.207
1644359864.133,191.406,8.301,6.836,-6.836,14.648
1644359864.137,-12.207,44.922,16.602,14.160,25.879
1644359864.141,-198.730,15.137,62.500,41.992,37.109
1644359864.144,0.000,10.742,47.363,20.508,12.207
1644359864.148,223.633,10.254,25.391,-0.488,15.625
1644359864.152,78.125,-0.977,35.156,2.930,72.754
1644359864.156,-192.871,9.277,35.156,5.859,62.500
1644359864.160,-58.594,23.926,41.992,-23.926,27.344
1644359864.155,175.781,27.344,45.898,-42.480,36.621
1644359864.159,117.676,28.809,41.504,-56.152,28.320
1644359864.163,-113.770,7.812,45.410,-22.461,19.043
1644359864.167,-122.070,-4.883,26.855,-85.449,45.898
1644359864.171,152.832,19.043,17.090,-155.762,77.637
1644359864.175,198.730,28.809,12.207,-139.160,48.828
1644359864.179,-91.309,27.832,23.438,-119.141,8.301
1644359864.182,-185.547,1.465,60.547,-96.191,46.875
1644359864.186,92.773,-6.836,59.570,-110.352,23.926
1644359864.190,220.215,6.836,30.273,-69.824,4.395
1644359864.194,13.672,33.691,21.973,-48.340,47.852
1644359864.198,-196.289,46.387,42.969,-72.754,51.758
1644359864.201,11.230,42.480,38.574,-86.426,38.574
1644359864.205,223.145,39.551,44.434,-59.570,4.883
1644359864.209,63.477,16.602,48.828,-62.012,-15.625
1644359864.213,-187.012,9.277,28.809,-20.996,-0.977
1644359864.217,-73.730,20.020,23.926,-5.371,28.320
1644359864.221,183.105,8.301,36.621,-41.504,26.367
1644359864.225,153.320,-20.020,31.738,-18.555,18.066
1644359864.228,-141.113,-2.441,38.574,9.766,55.664
1644359864.232,-161.133,20.020,53.223,-19.531,58.594
1644359864.236,138.184,27.832,51.270,-31.250,15.137
1644359864.240,182.617,37.109,47.852,-10.254,42.969
1644359864.244,-93.750,20.996,42.480,23.926,53.711
1644359864.246,-202.148,7.812,36.133,44.922,17.578
1644359864.250,83.496,11.230,26.855,32.227,9.277
1644359864.254,224.609,20.996,30.273,38.086,17.090
1644359864.258,4.883,16.602,31.738,28.320,18.066
1644359864.262,-228.027,16.602,41.016,34.668,12.695
1644359864.266,-29.297,15.137,43.457,16.602,56.152
1644359864.270,209.473,14.648,44.922,-4.395,41.504
1644359864.273,94.238,3.906,51.270,6.836,-34.180
1644359864.277,-170.410,9.277,33.691,44.434,10.742
1644359864.281,-101.074,31.738,5.859,25.391,29.297
1644359864.285,150.391,25.879,30.762,16.113,24.902
1644359864.289,138.184,15.625,53.711,28.809,26.367
1644359864.336,-113.770,20.508,31.250,37.109,82.031
1644359864.340,-154.785,13.184,30.762,52.734,112.793
1644359864.344,127.930,13.184,38.086,46.875,51.758
1644359864.348,193.359,22.949,15.625,32.227,17.090
1644359864.352,-73.730,20.996,24.414,17.578,42.480
1644359864.356,-222.168,25.879,43.945,41.992,29.785
1644359864.360,13.184,20.020,22.949,21.973,8.789
1644359864.363,165.039,20.020,20.996,-5.371,-25.391
1644359864.367,7.812,12.207,26.367,5.371,-6.836
1644359864.371,-205.566,4.883,37.598,44.922,57.617
1644359864.375,-25.879,0.977,47.852,29.785,39.551
1644359864.379,202.148,9.277,34.668,2.441,13.184
1644359864.385,71.289,34.668,26.855,20.020,49.316
1644359864.389,-194.336,24.414,27.832,63.965,40.039
1644359864.393,-113.281,30.762,30.762,59.570,28.320
1644359864.397,184.570,34.180,29.297,1.953,32.227
1644359864.401,193.848,23.926,25.879,-17.578,-12.207
1644359864.405,-92.285,16.602,24.902,27.344,-35.645
1644359864.409,-172.852,14.160,32.227,61.523,9.277
1644359864.412,107.910,24.414,48.828,63.965,52.734
1644359864.416,209.473,33.203,41.016,26.367,31.250
1644359864.420,-39.062,40.527,36.621,-8.301,33.203
1644359864.424,-210.938,23.926,39.551,34.668,28.809
1644359864.428,33.203,23.438,26.367,12.207,19.531
1644359864.531,229.004,28.320,9.766,3.418,47.852
1644359864.535,63.965,12.207,15.137,52.734,74.219
1644359864.539,-205.078,-6.348,28.809,73.730,31.738
1644359864.543,-65.918,0.000,41.016,39.062,87.891
1644359864.547,200.684,32.715,42.480,18.066,80.078
1644359864.551,108.398,41.992,44.922,-2.930,13.672
1644359864.555,-165.039,25.879,56.641,32.227,2.441
1644359864.558,-130.371,18.555,41.016,64.941,-12.207
1644359864.562,153.809,8.789,3.418,49.316,-6.836
1644359864.566,182.617,10.742,14.160,29.297,20.996
1644359864.570,-88.379,31.250,47.852,52.246,24.414
1644359864.574,-169.434,-18.555,59.570,62.500,18.066
1644359864.549,113.770,-24.902,46.875,28.320,10.742
1644359864.553,216.309,58.105,24.902,25.391,12.695
1644359864.557,-23.926,63.965,27.832,17.090,7.324
1644359864.561,-227.539,39.551,40.039,43.945,36.133
1644359864.565,-1.465,26.855,32.715,24.414,89.355
1644359864.569,218.750,19.043,27.832,24.414,88.379
1644359864.573,84.961,24.414,31.738,43.457,13.184
1644359864.576,-175.781,7.324,14.160,56.641,38.086
1644359864.580,-67.383,1.465,9.277,24.902,64.941
1644359864.584,190.430,25.391,37.598,11.230,47.363
1644359864.588,122.559,33.691,62.500,12.207,76.172
1644359864.592,-140.625,19.043,28.320,33.203,45.898
1644359864.562,-120.117,16.113,15.625,67.383,4.395
1644359864.566,132.812,20.508,27.832,52.734,-21.484
1644359864.570,154.785,-7.324,39.551,20.508,15.137
1644359864.574,-94.727,-2.441,47.363,1.465,50.781
1644359864.578,-208.496,24.414,43.945,17.090,42.480
1644359864.582,85.449,29.785,37.598,5.859,39.551
1644359864.586,235.840,30.762,19.043,11.230,57.617
1644359864.589,-3.418,22.461,25.391,40.039,49.316
1644359864.593,-218.750,10.254,31.250,74.219,19.531
1644359864.597,-26.855,17.578,15.137,48.340,54.199
1644359864.601,210.449,33.203,18.066,18.555,43.457
1644359864.605,107.422,29.785,34.180,8.789,26.367
1644359864.650,-162.598,10.254,38.086,42.969,18.066
1644359864.654,-70.801,-0.488,33.691,49.805,3.418
1644359864.658,211.426,24.414,23.438,50.781,44.922
1644359864.662,170.898,37.598,37.598,50.781,91.797
1644359864.666,-112.305,15.625,34.668,49.316,50.293
1644359864.670,-135.742,3.906,14.160,48.340,11.719
1644359864.674,115.234,16.113,25.879,36.133,31.738
1644359864.677,171.387,20.996,41.992,40.527,35.156
1644359864.681,-58.594,25.879,45.898,46.387,38.086
1644359864.685,-210.938,27.344,21.484,49.316,62.012
1644359864.689,42.969,17.578,15.137,29.297,23.926
1644359864.693,237.305,14.648,39.062,31.738,13.672
1644359864.655,51.758,11.230,41.504,54.199,10.254
1644359864.659,-169.922,8.301,35.156,72.266,10.254
1644359864.663,-11.230,27.832,25.879,46.875,53.223
1644359864.667,188.965,33.691,-2.441,62.012,84.473
1644359864.671,104.980,24.414,-6.836,59.082,76.660
1644359864.675,-174.316,14.160,-7.812,32.227,57.617
1644359864.679,-135.742,9.277,20.508,11.230,35.645
1644359864.682,165.039,22.949,65.430,20.020,50.293
1644359864.686,177.246,33.203,50.293,31.250,51.758
1644359864.690,-91.797,28.320,35.645,37.109,71.289
1644359864.694,-166.016,18.555,26.367,56.641,70.312
1644359864.698,111.816,31.738,17.090,55.176,30.762
1644359864.658,205.566,31.250,11.230,28.809,27.344
1644359864.662,-48.828,14.160,22.461,23.926,44.922
1644359864.666,-223.145,20.020,35.645,60.547,1.953
1644359864.670,23.926,24.414,38.086,46.387,-16.113
1644359864.674,219.727,14.648,19.043,39.551,28.320
1644359864.678,54.688,6.836,22.461,32.227,-8.301
1644359864.682,-203.613,14.160,42.480,51.758,-0.977
1644359864.685,-56.641,22.949,36.621,25.879,52.246
1644359864.689,208.496,29.785,30.273,-3.906,13.672
1644359864.693,132.324,22.461,32.715,5.859,-27.832
1644359864.697,-144.531,12.695,49.805,47.363,56.152
1644359864.701,-138.672,21.973,38.086,46.387,77.637
1644359864.668,133.789,24.902,24.902,21.973,3.906
1644359864.672,171.387,6.836,30.762,40.039,34.668
1644359864.676,-72.266,1.465,19.531,62.988,93.750
1644359864.680,-159.668,-3.418,2.930,56.641,79.102
1644359864.684,103.027,-4.395,7.324,18.555,49.805
1644359864.688,210.449,31.250,37.598,9.766,67.383
1644359864.692,-31.738,55.176,46.387,5.859,18.555
1644359864.695,-226.074,46.387,57.129,25.391,18.066
1644359864.699,13.184,33.203,55.176,30.762,36.621
1644359864.703,211.914,33.203,28.809,29.785,28.809
1644359864.707,50.781,25.391,28.809,4.883,31.738
1644359864.711,-186.035,-12.207,38.574,20.020,12.207
1644359864.772,-71.777,-5.859,29.297,20.508,15.137
1644359864.776,168.945,36.621,15.137,0.977,72.266
1644359864.780,123.047,42.480,25.879,-14.648,130.859
1644359864.784,-140.625,37.109,25.391,-2.930,65.430
1644359864.788,-143.555,41.016,1.465,6.836,39.551
1644359864.792,156.250,33.203,19.531,2.441,66.406
1644359864.796,200.195,18.555,23.438,-8.789,26.367
1644359864.799,-57.617,20.508,20.996,-17.090,22.949
1644359864.803,-171.387,19.043,35.156,0.488,38.086
1644359864.807,75.195,8.301,18.066,-25.391,35.645
1644359864.811,214.844,18.555,26.367,-16.113,42.480
1644359864.815,0.977,35.156,33.203,3.418,72.266
1644359864.846,-225.586,24.414,26.855,33.203,53.223
1644359864.850,-26.367,17.090,35.156,15.625,22.949
1644359864.854,199.707,26.367,38.086,-14.648,21.973
1644359864.858,87.402,18.555,37.109,-48.340,31.250
1644359864.862,-166.504,14.160,34.668,-27.832,20.508
1644359864.866,-74.219,27.832,39.551,-12.695,19.531
1644359864.870,180.664,11.230,41.016,-13.672,37.109
1644359864.873,165.039,20.996,30.762,-22.949,8.789
1644359864.877,-111.816,43.457,40.039,-21.484,16.113
1644359864.881,-164.551,38.574,43.457,-6.836,32.715
1644359864.885,131.836,39.062,39.551,-7.324,43.457
1644359864.889,199.219,24.414,25.879,15.625,20.020
1644359864.851,-53.711,10.254,20.020,13.184,-1.465
1644359864.855,-200.195,20.020,43.945,9.766,14.648
1644359864.859,55.176,19.043,17.090,2.441,25.879
1644359864.863,197.266,16.113,19.531,3.418,41.504
1644359864.867,-1.953,27.344,50.781,5.859,11.719
1644359864.871,-229.492,19.043,33.203,22.949,-4.883
1644359864.875,-50.293,22.461,28.320,0.000,39.062
1644359864.878,210.449,30.273,26.367,1.953,30.762
1644359864.882,114.746,23.438,24.902,7.812,28.320
1644359864.886,-162.598,11.719,40.039,28.320,1.953
1644359864.890,-102.051,9.277,24.902,34.668,-20.508
1644359864.894,189.941,18.555,12.695,9.766,37.598
1644359864.855,195.312,23.438,24.902,-5.859,55.664
1644359864.859,-95.215,22.949,20.996,11.719,56.641
1644359864.863,-161.621,24.414,18.066,38.574,22.949
1644359864.867,118.652,26.855,35.645,29.785,-29.785
1644359864.871,200.195,28.809,32.227,41.992,90.820
1644359864.875,-23.438,17.578,20.996,62.012,108.398
1644359864.879,-179.688,10.742,31.250,40.039,50.781
1644359864.882,47.852,23.438,36.133,-2.441,40.039
1644359864.886,232.422,24.902,14.648,14.160,43.945
1644359864.890,69.336,33.203,20.020,33.203,0.488
1644359864.894,-187.012,34.668,34.180,58.105,16.113
1644359864.898,-39.551,15.625,32.715,40.039,71.289
1644359864.906,202.148,19.043,41.016,24.902,35.645
1644359864.910,124.023,24.414,34.180,14.160,2.930
1644359864.914,-148.438,24.902,21.484,38.574,-4.883
1644359864.918,-131.836,25.879,16.602,34.180,8.789
1644359864.922,160.645,21.973,25.879,7.324,50.781
1644359864.926,193.359,22.461,28.320,29.297,68.359
1644359864.930,-93.262,21.484,15.625,44.922,11.230
1644359864.933,-205.078,25.391,26.855,44.434,7.812
1644359864.937,83.008,30.273,48.340,22.949,61.035
1644359864.941,208.496,26.855,44.434,16.113,45.410
1644359864.945,-29.297,9.766,31.738,38.086,5.371
1644359864.949,-198.730,7.324,31.738,66.406,54.688
1644359864.950,26.367,32.227,19.043,30.273,69.824
1644359864.954,200.684,34.668,4.395,17.090,15.137
1644359864.958,68.359,15.137,21.973,41.992,22.461
1644359864.962,-187.012,12.695,35.156,60.059,23.438
1644359864.966,-86.914,36.133,37.109,28.809,16.602
1644359864.970,172.363,42.969,44.922,14.648,21.973
1644359864.974,113.770,30.273,42.480,10.742,-7.324
1644359864.977,-163.574,3.418,36.621,21.484,37.109
1644359864.981,-144.043,0.488,35.156,34.668,62.500
1644359864.985,150.879,18.066,34.668,21.484,33.691
1644359864.989,190.430,36.133,23.926,17.578,39.551
1644359864.993,-62.500,42.969,7.324,23.926,59.082
1644359865.010,-168.945,36.621,19.043,41.992,62.012
1644359865.014,85.449,34.668,37.109,35.156,46.387
1644359865.018,212.891,39.551,34.668,48.340,11.230
1644359865.022,22.461,21.484,31.250,52.246,-20.996
1644359865.026,-192.383,-6.836,4.883,62.012,47.363
1644359865.030,-11.230,19.043,7.324,12.207,81.543
1644359865.034,208.496,44.922,40.527,-22.949,39.062
1644359865.037,83.008,22.461,37.109,-13.184,-7.812
1644359865.041,-179.688,1.953,30.273,17.578,11.230
1644359865.045,-90.332,20.996,37.109,28.320,56.641
1644359865.049,174.805,40.039,30.273,9.277,19.043
1644359865.053,145.508,44.434,20.020,1.953,-15.137
1644359865.071,-111.328,36.133,30.762,34.180,15.625
1644359865.075,-151.367,15.625,26.855,31.738,20.508
1644359865.079,118.652,19.043,28.320,-0.977,-11.230
1644359865.083,193.848,27.832,39.062,21.973,20.508
1644359865.087,-47.363,19.531,21.973,62.012,47.852
1644359865.091,-181.152,17.578,12.695,49.805,45.410
1644359865.095,73.242,28.809,41.016,5.371,56.641
1644359865.098,199.219,25.879,51.758,-1.465,22.949
1644359865.102,-5.371,21.484,38.574,-12.695,-9.766
1644359865.106,-214.844,23.438,36.133,18.066,30.762
1644359865.110,-32.227,23.438,34.668,-11.230,4.883
1644359865.114,206.055,27.832,25.879,-20.996,-24.902
1644359865.102,102.051,24.902,20.508,-4.395,20.508
1644359865.106,-178.223,8.301,11.230,7.324,22.461
1644359865.110,-125.977,-10.742,12.695,25.879,55.664
1644359865.114,158.203,3.418,34.180,14.648,105.469
1644359865.118,179.688,28.320,32.715,-22.949,23.926
1644359865.122,-106.445,36.621,23.926,-15.137,-9.766
1644359865.126,-197.266,28.320,21.973,6.836,102.539
1644359865.129,85.938,22.461,25.391,-25.391,41.504
1644359865.133,169.434,24.902,20.996,-39.062,2.441
1644359865.137,-52.246,20.508,14.648,-14.160,46.387
1644359865.141,-195.312,19.043,29.785,29.785,53.711
1644359865.145,27.832,25.391,32.227,19.531,44.434
1644359865.145,206.543,19.043,24.414,4.395,12.695
1644359865.149,50.781,-1.953,17.578,-15.137,31.738
1644359865.153,-191.895,3.906,23.926,11.230,42.480
1644359865.157,-39.062,22.461,40.039,15.137,52.246
1644359865.161,196.289,19.043,19.043,-3.906,28.320
1644359865.165,103.027,11.230,17.090,6.348,21.484
1644359865.169,-170.898,28.809,39.551,15.625,29.785
1644359865.172,-136.719,31.250,47.852,0.000,27.344
1644359865.176,154.297,21.973,36.621,-10.254,1.465
1644359865.180,168.945,25.879,24.414,-24.902,28.320
1644359865.184,-86.426,24.414,25.879,-10.742,84.473
1644359865.188,-141.602,12.695,26.855,3.906,37.598
1644359865.236,126.953,14.648,23.926,-15.625,28.320
1644359865.240,204.590,10.742,24.414,-7.324,23.438
1644359865.244,-35.645,3.418,25.391,-20.020,16.113
1644359865.248,-200.684,12.695,11.719,12.207,65.430
1644359865.252,21.484,22.949,17.578,-2.930,90.332
1644359865.256,182.129,25.879,30.273,0.977,36.133
1644359865.260,34.668,23.438,22.949,3.418,16.602
1644359865.263,-212.891,28.809,20.508,19.043,47.852
1644359865.267,-80.078,33.203,15.137,33.203,35.156
1644359865.271,193.359,5.859,8.301,22.461,57.617
1644359865.275,132.812,0.488,20.996,-2.930,57.129
1644359865.279,-138.184,32.227,41.992,11.719,11.719
1644359865.281,-119.629,30.273,37.109,12.695,23.438
1644359865.285,162.598,39.062,21.973,-7.812,43.457
1644359865.289,198.242,37.598,17.578,-4.883,11.719
1644359865.293,-49.805,3.418,24.902,6.348,-4.395
1644359865.297,-154.785,-12.207,34.180,29.785,35.156
1644359865.301,85.938,6.348,22.461,3.906,20.020
1644359865.305,189.453,24.414,7.324,12.207,7.812
1644359865.308,-6.348,34.668,15.137,19.531,36.133
1644359865.312,-199.219,41.504,28.809,29.785,47.363
1644359865.316,3.906,41.504,14.160,-3.906,100.586
1644359865.320,217.285,36.621,6.348,-22.949,84.473
1644359865.324,86.914,20.020,18.555,-6.348,48.828
1644359865.297,-194.336,6.348,28.809,16.602,34.668
1644359865.301,-120.605,7.324,37.109,20.508,-10.254
1644359865.305,173.340,8.301,19.531,10.254,31.738
1644359865.309,147.461,1.465,12.695,-8.789,20.508
1644359865.313,-128.906,0.488,24.902,6.348,-31.738
1644359865.317,-144.043,7.324,31.738,21.484,16.602
1644359865.321,151.367,20.020,18.066,-14.648,37.598
1644359865.324,210.938,33.203,-1.465,-20.508,31.250
1644359865.328,-44.922,3.906,4.883,-9.277,6.348
1644359865.332,-200.195,1.953,24.414,22.949,45.410
1644359865.336,30.762,38.574,40.527,10.742,45.410
1644359865.340,199.219,37.598,28.809,-17.090,30.273
1644359865.327,15.137,32.715,22.949,-12.695,14.648
1644359865.331,-212.402,15.625,41.992,18.066,-4.395
1644359865.335,-30.762,15.137,33.203,10.254,-4.883
1644359865.339,199.707,17.578,17.090,0.977,12.207
1644359865.343,104.980,-5.859,29.785,5.371,14.648
1644359865.347,-149.902,0.977,51.270,51.758,31.250
1644359865.351,-116.699,19.531,28.809,36.621,7.812
1644359865.354,130.371,27.344,4.395,-2.441,-37.598
1644359865.358,133.301,27.344,-1.465,3.418,-6.836
1644359865.362,-135.742,19.043,-12.207,19.043,32.227
1644359865.366,-194.336,15.137,7.324,24.902,76.660
1644359865.370,103.516,10.742,11.719,24.902,72.754
1644359865.430,222.168,10.742,25.391,50.781,30.273
1644359865.434,-24.902,12.207,41.016,71.777,8.789
1644359865.438,-228.516,-4.395,29.297,69.824,5.859
1644359865.442,4.395,15.137,20.508,28.320,41.504
1644359865.446,211.426,41.504,20.508,39.551,14.648
1644359865.450,44.434,36.621,18.066,58.594,-43.457
1644359865.454,-201.660,24.902,7.812,61.523,-13.672
1644359865.457,-56.152,29.785,-1.953,44.434,41.016
1644359865.461,189.453,37.598,15.625,34.668,88.867
1644359865.465,104.980,13.184,40.527,25.879,70.312
1644359865.469,-164.062,2.930,40.039,51.758,51.758
1644359865.473,-132.324,4.395,35.645,50.293,41.992
1644359865.596,155.273,15.625,40.039,38.574,26.855
1644359865.600,167.480,46.875,27.344,22.949,38.574
1644359865.604,-120.117,41.504,8.301,34.668,62.012
1644359865.608,-185.547,31.250,12.207,62.012,61.523
1644359865.612,103.516,37.109,7.812,31.738,56.641
1644359865.616,218.262,19.531,0.977,30.762,55.176
1644359865.620,-30.762,28.809,18.066,28.320,95.215
1644359865.623,-226.562,25.391,48.340,37.109,109.863
1644359865.627,-13.184,26.855,56.152,25.391,72.266
1644359865.631,160.645,43.457,30.762,16.113,63.965
1644359865.635,0.977,22.461,8.301,14.160,20.020
1644359865.639,-242.676,19.043,21.484,46.875,1.953
1644359865.601,-117.188,25.391,28.320,33.691,-15.137
1644359865.605,123.047,20.996,19.043,18.066,-19.043
1644359865.609,57.617,14.648,28.809,9.766,2.930
1644359865.613,-206.543,5.859,23.438,37.598,63.477
1644359865.617,-195.312,3.418,11.719,43.945,52.734
1644359865.621,82.031,17.578,27.832,24.414,2.930
1644359865.625,137.207,20.996,24.902,30.273,40.527
1644359865.628,-118.652,21.973,-2.930,32.227,3.906
1644359865.632,-231.934,34.668,1.465,49.805,0.977
1644359865.636,30.273,28.320,20.996,31.250,62.500
1644359865.640,139.648,29.785,17.578,42.480,59.082
1644359865.644,-51.758,29.785,34.180,48.828,-10.742
1644359865.687,-257.324,13.184,39.551,50.293,-14.648
1644359865.691,-63.477,33.691,33.691,48.828,8.789
1644359865.695,165.527,25.879,29.785,52.246,20.020
1644359865.699,39.062,-12.207,11.230,33.203,17.090
1644359865.703,-217.285,22.461,11.719,73.242,15.137
1644359865.707,-108.887,54.199,15.137,80.566,29.785
1644359865.711,157.227,43.457,3.906,41.016,39.551
1644359865.714,110.352,33.691,5.859,50.781,18.066
1644359865.718,-189.941,14.648,36.133,60.547,19.043
1644359865.722,-250.000,17.090,37.598,34.668,60.059
1644359865.726,64.453,41.504,21.484,13.672,7.324
1644359865.730,162.598,37.109,37.109,44.434,6.348
1644359865.692,-78.613,9.277,36.621,57.617,64.453
1644359865.696,-221.191,2.441,-11.230,55.664,68.359
1644359865.700,10.254,15.625,-11.719,41.992,22.949
1644359865.704,157.227,33.203,32.227,39.062,46.875
1644359865.708,-20.996,30.762,32.715,44.434,38.086
1644359865.712,-238.770,18.555,28.809,73.242,71.777
1644359865.716,-55.176,16.113,27.344,43.457,81.055
1644359865.719,205.566,4.883,28.320,36.621,25.879
1644359865.723,87.402,3.906,26.367,56.152,-5.859
1644359865.727,-185.547,18.066,17.578,68.848,49.316
1644359865.731,-126.465,29.297,7.324,24.414,75.195
1644359865.735,132.812,43.945,-0.977,4.395,31.250
1644359865.695,121.094,31.738,23.926,18.555,42.969
1644359865.699,-141.113,18.555,48.340,51.758,-1.953
1644359865.703,-177.246,16.113,37.598,79.590,4.883
1644359865.707,99.121,13.184,34.180,55.664,45.898
1644359865.711,173.828,20.020,32.715,34.180,3.906
1644359865.715,-59.570,29.297,17.090,7.324,-22.461
1644359865.719,-213.379,15.625,6.836,24.414,7.812
1644359865.722,32.227,-2.930,10.742,29.785,23.926
1644359865.726,182.617,21.484,12.207,28.320,35.645
1644359865.730,-2.441,47.363,38.086,33.691,39.551
1644359865.734,-225.098,37.109,50.293,48.340,5.859
1644359865.738,-64.941,16.602,26.855,29.785,-5.371
1644359865.703,166.992,5.371,16.113,25.391,15.137
1644359865.707,65.430,13.672,17.090,4.395,51.270
1644359865.711,-209.961,19.043,24.414,8.789,62.500
1644359865.715,-144.531,20.508,25.391,6.348,49.316
1644359865.719,146.973,22.949,12.695,8.301,15.137
1644359865.723,158.691,35.156,26.367,9.766,3.418
1644359865.727,-103.027,28.809,40.527,51.758,-5.859
1644359865.730,-168.457,11.230,20.020,76.660,-1.465
1644359865.734,125.488,34.180,22.461,18.555,0.000
1644359865.738,212.402,47.363,22.949,12.207,30.273
1644359865.742,-29.297,37.109,20.020,29.785,34.180
1644359865.746,-198.730,30.762,34.668,32.715,5.371
1644359865.716,8.789,40.527,23.438,28.320,13.672
1644359865.720,200.684,23.438,25.391,63.477,42.480
1644359865.724,74.707,-4.883,32.227,63.477,27.832
1644359865.728,-184.570,17.578,16.602,57.617,-7.324
1644359865.732,-38.574,40.039,20.508,56.641,-16.602
1644359865.736,233.398,34.180,36.621,58.594,-12.695
1644359865.740,146.484,10.742,8.301,22.461,-2.930
1644359865.743,-145.996,-10.254,0.977,16.113,28.320
1644359865.747,-129.395,6.836,20.996,40.527,66.895
1644359865.751,142.578,18.066,15.625,24.414,67.871
1644359865.755,164.551,27.832,37.598,-2.441,53.711
1644359865.759,-104.980,30.762,41.016,17.090,29.297
1644359865.790,-213.379,12.695,32.227,56.641,28.320
1644359865.794,68.848,15.625,31.738,20.508,38.086
1644359865.798,190.430,28.809,31.250,3.418,12.207
1644359865.802,-25.391,2.441,24.902,21.484,47.363
1644359865.806,-222.656,-10.254,23.438,31.250,65.430
1644359865.810,-36.621,22.461,26.367,-7.812,3.906
1644359865.814,186.523,37.598,11.230,-24.414,17.090
1644359865.817,70.801,35.645,30.762,-2.441,10.742
1644359865.821,-196.289,25.879,35.645,36.133,-12.695
1644359865.825,-99.121,24.902,20.020,15.625,13.672
1644359865.829,158.691,40.527,25.391,-8.301,27.344
1644359865.833,117.676,39.551,29.297,-13.184,14.160
1644359865.821,-147.949,27.344,20.020,25.391,-21.973
1644359865.825,-164.062,19.531,-6.836,74.707,2.930
1644359865.829,136.230,25.391,16.113,41.016,14.648
1644359865.833,211.426,20.996,44.922,-7.812,33.203
1644359865.837,-66.895,-3.418,22.461,2.441,21.973
1644359865.841,-205.078,15.625,20.508,30.762,-16.113
1644359865.845,62.012,53.711,38.086,16.602,1.953
1644359865.848,210.938,39.551,55.176,17.578,5.859
1644359865.852,30.273,21.973,48.340,8.301,29.785
1644359865.856,-199.707,10.742,40.039,26.367,82.520
1644359865.860,-30.762,-3.418,11.230,28.809,43.457
1644359865.864,203.613,10.254,10.742,37.109,-41.016
1644359865.866,70.801,43.945,31.250,34.668,3.906
1644359865.870,-226.074,43.457,21.484,35.156,105.957
1644359865.874,-132.812,26.855,27.832,31.738,108.398
1644359865.878,168.945,23.926,42.969,31.738,32.715
1644359865.882,143.555,38.574,18.555,13.184,23.438
1644359865.886,-161.133,37.109,6.348,1.953,48.340
1644359865.890,-202.148,16.113,40.039,16.113,12.207
1644359865.893,113.770,12.695,28.320,6.836,14.160
1644359865.897,189.941,9.277,4.883,20.508,37.109
1644359865.901,-47.852,29.297,33.691,30.762,50.293
1644359865.905,-207.031,39.551,36.621,27.832,40.039
1644359865.909,16.113,33.691,9.766,11.719,13.672
1644359865.896,202.637,14.160,9.766,9.766,-5.371
1644359865.900,38.574,7.324,23.926,-1.953,20.508
1644359865.904,-215.332,20.996,30.762,34.180,54.199
1644359865.908,-76.172,35.645,19.531,28.320,43.945
1644359865.912,156.250,36.133,30.762,9.277,-1.465
1644359865.916,86.426,26.855,37.109,20.508,26.855
1644359865.920,-202.148,23.438,25.879,42.480,45.898
1644359865.923,-153.320,21.484,20.508,23.926,15.625
1644359865.927,158.203,25.879,15.137,5.859,6.836
1644359865.931,161.621,19.043,8.301,16.602,2.441
1644359865.935,-119.629,6.348,12.695,27.344,4.883
1644359865.939,-178.711,5.859,13.184,47.852,6.348
1644359865.985,115.234,40.039,17.090,54.688,68.848
1644359865.989,200.195,41.504,-1.953,32.227,80.078
1644359865.993,-27.832,38.574,8.789,1.953,54.688
1644359865.997,-222.168,41.504,41.016,2.441,39.062
1644359866.001,-11.719,28.320,45.410,-14.648,-5.859
1644359866.005,186.523,29.297,20.996,11.230,-24.902
1644359866.009,31.250,13.672,24.902,31.250,-6.836
1644359866.012,-196.289,-21.484,24.414,48.828,50.781
1644359866.016,-73.730,15.137,2.930,23.926,15.625
1644359866.020,161.133,54.199,17.578,12.695,-6.836
1644359866.024,121.094,46.387,39.062,22.949,21.973
1644359866.028,-136.719,24.414,40.527,51.270,74.219
1644359865.990,-121.582,12.695,15.137,59.570,57.617
1644359865.994,153.809,25.879,25.879,25.879,16.113
1644359865.998,168.457,38.086,54.199,22.461,12.695
1644359866.002,-87.891,37.598,46.875,11.719,10.742
1644359866.006,-176.270,20.020,14.648,24.902,74.707
1644359866.010,75.195,13.184,12.207,12.207,40.527
1644359866.014,178.223,25.879,25.391,-1.465,28.320
1644359866.017,-17.090,30.762,17.578,1.465,51.758
1644359866.021,-228.516,16.602,3.418,23.926,23.438
1644359866.025,-31.250,33.691,15.625,6.348,29.785
1644359866.029,204.590,41.504,53.223,24.902,47.363
1644359866.033,66.895,26.855,58.105,10.742,62.500
1644359866.047,-201.172,12.207,34.668,0.488,29.785
1644359866.051,-80.566,14.160,-1.953,21.484,20.996
1644359866.055,183.594,21.973,9.277,6.836,42.969
1644359866.059,125.488,1.465,48.340,-2.441,26.367
1644359866.063,-148.926,4.883,41.016,16.113,21.973
1644359866.067,-166.992,36.621,17.090,1.953,-2.930
1644359866.071,135.742,59.082,27.344,-13.672,21.973
1644359866.074,195.801,25.391,38.574,7.812,50.293
1644359866.078,-90.332,-8.301,26.367,8.301,34.668
1644359866.082,-222.168,22.949,15.137,9.277,37.598
1644359866.086,52.734,35.156,14.160,-16.602,-3.906
1644359866.090,184.570,37.109,19.043,-18.066,15.625
1644359866.075,-27.344,36.621,24.414,-9.277,30.762
1644359866.079,-230.957,20.508,33.203,-7.812,24.902
1644359866.083,-58.594,18.066,41.504,-9.766,44.922
1644359866.087,172.852,21.484,37.598,-15.137,-1.465
1644359866.091,92.773,3.906,16.113,-30.762,-19.043
1644359866.095,-166.992,-11.719,20.020,19.531,26.367
1644359866.099,-136.719,15.625,18.066,5.371,39.062
1644359866.102,141.602,35.156,19.531,-40.039,8.789
1644359866.106,132.324,35.156,46.875,-40.527,-3.418
1644359866.110,-153.809,35.645,53.223,-32.227,-8.789
1644359866.114,-176.270,25.879,45.410,-3.906,42.969
1644359866.118,118.652,21.484,37.109,-25.391,38.574
1644359866.120,189.941,25.391,15.137,-44.922,31.250
1644359866.124,-56.641,27.344,18.555,-12.695,32.227
1644359866.128,-168.945,30.273,19.043,18.066,3.906
1644359866.132,80.566,34.180,-3.418,-26.367,2.441
1644359866.136,202.637,35.645,21.973,-35.645,6.348
1644359866.140,6.836,21.484,44.434,-39.062,48.828
1644359866.144,-235.840,19.043,43.945,-24.414,33.691
1644359866.147,-67.383,9.277,47.852,-16.602,23.926
1644359866.151,184.570,18.555,33.203,-3.418,49.316
1644359866.155,107.910,38.574,18.555,-27.832,27.344
1644359866.159,-177.246,20.996,33.691,-53.711,18.555
1644359866.163,-145.508,15.137,40.039,-30.273,34.668
1644359866.287,165.527,34.180,27.344,-24.902,-1.465
1644359866.291,192.383,31.738,19.043,-27.344,-4.883
1644359866.295,-101.074,9.766,20.508,-15.625,36.621
1644359866.299,-189.941,8.789,20.508,-18.555,58.594
1644359866.303,87.891,34.180,35.645,-40.039,43.457
1644359866.307,191.406,26.367,19.531,-50.293,44.434
1644359866.311,-24.902,-6.348,0.488,-53.223,67.383
1644359866.314,-191.895,18.066,40.527,-40.039,19.043
1644359866.318,40.527,38.086,39.551,-62.500,12.207
1644359866.322,213.867,28.809,20.508,-77.148,-0.488
1644359866.326,44.434,45.410,22.949,-83.984,35.156
1644359866.330,-206.543,49.316,20.996,-80.078,32.715
1644359866.292,-71.777,40.039,32.715,-87.402,-19.531
1644359866.296,190.918,27.832,42.480,-90.820,0.000
1644359866.300,131.836,27.832,37.598,-92.773,5.371
1644359866.304,-126.465,18.066,21.973,-49.316,-8.789
1644359866.308,-126.953,23.438,13.184,-20.020,26.367
1644359866.312,126.465,18.555,15.625,-42.969,18.555
1644359866.316,167.969,8.789,24.902,-81.543,-3.906
1644359866.319,-86.914,9.766,51.270,-84.473,16.602
1644359866.323,-179.199,34.668,48.340,-62.500,14.160
1644359866.327,102.051,52.246,18.555,-80.566,37.598
1644359866.331,219.238,21.973,37.109,-59.082,-27.344
1644359866.335,-30.273,14.160,37.598,-76.660,-16.602
1644359866.331,-187.500,15.625,17.578,-86.914,47.363
1644359866.335,38.086,21.973,23.438,-62.012,27.832
1644359866.339,184.082,43.457,31.250,-39.551,56.641
1644359866.343,37.109,32.715,34.180,-31.250,89.355
1644359866.347,-201.660,8.789,16.113,-7.324,100.098
1644359866.351,-79.590,19.531,3.418,-17.090,45.410
1644359866.355,203.125,26.855,28.809,-41.992,39.062
1644359866.358,175.293,5.859,50.293,-48.828,75.195
1644359866.362,-116.699,-5.859,40.039,-20.996,32.715
1644359866.366,-162.109,12.695,28.809,-8.789,45.410
1644359866.370,120.605,35.645,24.902,-17.578,67.383
1644359866.374,181.152,34.180,28.809,10.254,17.578
1644359866.333,-73.242,18.555,28.809,22.461,43.457
1644359866.337,-186.523,8.301,17.090,-4.395,54.199
1644359866.341,69.824,33.203,12.207,-46.875,50.293
1644359866.345,217.285,9.766,27.344,-51.758,64.453
1644359866.349,1.465,-23.438,37.109,-49.316,41.504
1644359866.353,-222.656,26.367,7.324,-21.973,50.781
1644359866.357,-28.320,59.570,-4.395,-36.621,39.551
1644359866.360,191.406,47.363,32.227,-44.922,35.645
1644359866.364,85.449,8.301,53.711,-23.926,45.898
1644359866.368,-163.574,5.371,29.785,11.230,5.859
1644359866.372,-103.516,38.574,18.066,-9.277,-8.301
1644359866.376,156.250,34.180,38.574,-41.992,37.598
1644359866.360,161.133,29.297,41.504,-31.250,87.402
1644359866.364,-113.770,24.902,42.480,-16.113,77.148
1644359866.368,-152.832,7.812,34.668,-22.949,50.781
1644359866.372,133.789,24.414,18.555,-39.062,69.824
1644359866.376,200.195,42.969,9.766,-23.438,80.078
1644359866.380,-42.480,20.020,25.879,-14.160,46.387
1644359866.384,-192.383,7.324,20.508,-1.465,12.695
1644359866.387,47.852,35.156,18.066,-5.859,-20.508
1644359866.391,196.777,52.734,44.922,-9.277,-41.016
1644359866.395,22.949,42.480,41.992,-6.836,-24.414
1644359866.399,-200.684,20.020,33.691,16.602,11.230
1644359866.403,-40.039,21.973,22.461,-3.906,28.320
1644359866.405,198.242,32.227,13.672,-20.020,20.020
1644359866.409,109.375,36.133,14.160,-16.113,22.461
1644359866.413,-142.090,41.504,10.742,30.762,12.207
1644359866.417,-99.121,28.320,24.902,37.598,27.832
1644359866.421,159.668,9.766,41.016,15.625,63.477
1644359866.425,161.621,13.184,36.133,16.602,44.434
1644359866.429,-113.770,23.438,30.273,27.344,40.039
1644359866.432,-177.246,19.531,33.691,37.109,38.574
1644359866.436,98.145,40.039,36.621,18.555,44.434
1644359866.440,201.660,37.598,26.367,30.273,12.695
1644359866.444,-31.250,19.531,28.320,38.574,-10.254
1644359866.448,-196.777,25.391,46.387,49.316,56.641
1644359866.450,28.320,29.297,46.875,32.715,63.477
1644359866.454,184.082,41.504,25.879,-3.906,19.043
1644359866.458,24.414,41.992,27.344,-22.949,-5.371
1644359866.462,-201.172,3.418,38.574,9.766,59.082
1644359866.466,-55.664,6.348,31.738,13.672,85.449
1644359866.470,197.266,56.152,34.668,22.461,79.102
1644359866.474,144.531,39.062,38.086,50.293,83.008
1644359866.477,-132.324,0.000,35.156,40.527,65.918
1644359866.481,-136.719,18.066,31.250,16.602,60.547
1644359866.485,130.859,33.203,22.949,-7.324,35.156
1644359866.489,171.387,20.020,41.504,-10.742,37.598
1644359866.493,-97.656,21.484,39.062,0.488,45.410
1644359866.527,-200.684,33.691,28.320,1.953,49.805
1644359866.531,95.215,39.062,31.250,3.906,89.355
1644359866.535,197.754,37.109,35.156,14.160,39.551
1644359866.539,-27.344,22.949,42.480,8.301,-7.812
1644359866.543,-203.125,15.137,24.414,37.109,14.160
1644359866.547,-2.930,19.043,24.902,28.809,60.059
1644359866.551,198.242,21.973,41.016,17.578,58.594
1644359866.554,62.500,13.672,32.227,25.391,9.277
1644359866.558,-181.641,23.438,19.531,61.523,35.156
1644359866.562,-54.199,39.551,22.461,50.781,66.895
1644359866.566,212.402,37.109,29.785,34.180,59.082
1644359866.570,168.945,27.832,30.762,44.922,22.949
1644359866.735,-105.957,17.578,29.785,61.523,-23.926
1644359866.739,-119.629,22.461,40.039,71.777,-43.945
1644359866.743,147.461,28.320,33.203,62.988,-3.418
1644359866.747,182.617,20.020,17.578,40.039,45.410
1644359866.751,-65.430,23.926,23.438,46.387,49.316
1644359866.755,-191.895,33.691,27.832,63.965,27.832
1644359866.759,56.152,45.410,28.320,32.227,-36.133
1644359866.762,208.008,43.457,17.090,38.574,7.324
1644359866.766,30.273,11.230,6.836,57.617,103.027
1644359866.770,-196.777,-5.859,28.809,73.730,82.031
1644359866.774,-28.809,23.438,39.062,41.992,49.805
1644359866.778,182.129,28.320,27.344,44.922,91.797
1644359866.753,60.059,25.391,39.062,47.852,41.504
1644359866.757,-196.289,27.344,53.711,59.082,32.715
1644359866.761,-109.863,27.344,43.457,43.945,32.715
1644359866.765,165.039,37.109,28.320,21.484,31.250
1644359866.769,152.832,36.133,28.809,41.504,40.527
1644359866.773,-118.652,31.250,31.250,68.848,47.852
1644359866.777,-150.391,5.859,26.367,73.242,71.777
1644359866.780,150.391,7.812,17.090,41.016,62.012
1644359866.784,222.656,41.992,16.602,30.762,41.016
1644359866.788,-51.758,32.227,22.461,43.457,40.039
1644359866.792,-209.473,12.695,33.203,67.871,39.062
1644359866.796,53.711,34.180,44.434,54.688,-22.949
1644359866.757,207.520,56.641,29.297,36.621,4.883
1644359866.761,22.949,34.180,34.180,21.484,44.922
1644359866.765,-194.336,11.719,46.875,42.969,63.965
1644359866.769,-33.203,15.625,41.016,30.762,28.320
1644359866.773,190.918,3.906,47.363,23.438,8.301
1644359866.777,95.215,12.695,43.457,23.438,13.184
1644359866.781,-161.133,27.832,34.668,48.340,38.086
1644359866.784,-98.633,37.109,36.133,56.152,72.754
1644359866.788,179.199,46.875,30.762,35.156,62.500
1644359866.792,176.270,39.551,19.043,41.016,31.250
1644359866.796,-88.867,28.320,28.320,62.500,54.688
1644359866.800,-168.945,22.949,30.273,48.828,95.215
1644359866.765,114.258,29.297,27.832,33.691,60.547
1644359866.769,221.680,26.855,41.504,44.434,38.086
1644359866.773,-19.043,34.668,49.805,35.645,-4.395
1644359866.777,-198.730,39.062,41.504,55.664,12.207
1644359866.781,32.227,40.039,27.832,33.203,62.012
1644359866.785,213.867,41.016,29.785,12.207,34.668
1644359866.789,41.992,26.855,21.973,28.320,43.945
1644359866.792,-192.871,26.367,5.371,61.523,51.758
1644359866.796,-38.574,32.227,14.648,37.109,55.664
1644359866.800,205.078,33.203,39.062,13.672,27.832
1644359866.804,120.605,25.391,55.664,14.160,-0.977
1644359866.808,-157.227,27.344,49.316,48.340,36.133
1644359866.770,-139.648,37.109,26.855,40.039,37.598
1644359866.774,152.344,32.227,13.184,1.953,40.527
1644359866.778,172.852,27.344,17.578,11.230,31.738
1644359866.782,-119.141,26.855,28.809,19.531,-0.977
1644359866.786,-199.707,32.227,30.273,38.086,10.742
1644359866.790,92.285,25.879,31.738,43.457,11.230
1644359866.794,207.031,10.254,27.344,41.016,18.555
1644359866.797,-1.465,13.672,32.715,24.414,-25.391
1644359866.801,-189.941,15.137,44.434,38.574,-57.617
1644359866.805,1.953,31.738,33.691,27.344,-29.297
1644359866.809,197.266,45.410,19.531,15.625,3.418
1644359866.813,76.172,37.109,-2.930,21.484,15.625
1644359866.780,-181.152,14.160,2.930,44.922,20.020
1644359866.784,-85.938,6.348,29.785,26.367,12.695
1644359866.788,203.125,19.043,39.551,18.066,30.273
1644359866.792,171.387,20.020,57.129,35.645,-3.906
1644359866.796,-136.719,33.203,53.711,45.898,7.812
1644359866.800,-152.832,43.945,32.227,34.668,67.871
1644359866.804,152.344,38.086,20.996,29.785,9.277
1644359866.807,206.543,34.180,22.949,34.668,-2.441
1644359866.811,-71.777,19.531,8.789,42.480,27.832
1644359866.815,-188.477,-11.230,18.555,53.711,74.219
1644359866.819,75.684,8.789,47.363,24.414,84.961
1644359866.823,205.566,37.109,28.809,-0.488,58.105
1644359866.825,1.465,33.203,26.855,-23.438,64.941
1644359866.829,-227.051,15.137,52.246,-3.906,75.684
1644359866.833,-28.320,21.973,40.527,-2.441,69.824
1644359866.837,215.820,37.598,15.137,1.465,80.566
1644359866.841,103.516,32.227,19.531,12.695,61.523
1644359866.845,-167.969,14.160,30.762,39.062,39.062
1644359866.849,-74.707,15.137,36.133,41.504,1.465
1644359866.852,210.449,21.484,43.945,34.668,-18.066
1644359866.856,161.133,19.043,35.156,11.719,33.691
1644359866.860,-138.672,30.273,20.508,0.000,75.195
1644359866.864,-186.035,26.855,32.227,16.602,52.246
1644359866.868,103.027,31.738,36.133,14.648,52.734
1644359866.931,180.664,33.691,7.812,4.395,48.828
1644359866.935,-48.828,20.996,21.484,-1.465,8.301
1644359866.939,-174.316,27.344,36.621,-13.672,12.207
1644359866.943,48.340,31.250,29.297,-42.969,48.828
1644359866.947,190.918,10.254,34.668,-15.137,23.926
1644359866.951,20.508,10.742,31.738,-15.137,-22.949
1644359866.955,-202.637,7.324,36.133,-3.418,9.277
1644359866.958,-29.297,-1.465,25.879,-11.230,34.180
1644359866.962,202.148,45.898,21.973,-10.254,-4.883
1644359866.966,84.473,53.223,46.387,12.695,-4.395
1644359866.970,-197.754,7.812,43.457,6.836,50.293
1644359866.974,-136.230,9.277,31.738,-8.301,13.672
1644359867.050,147.461,35.645,23.438,-9.766,-8.789
1644359867.054,151.855,39.551,19.043,-6.348,29.297
1644359867.058,-108.398,22.949,34.668,20.020,19.043
1644359867.062,-168.457,16.113,47.363,47.363,35.645
1644359867.066,102.539,14.648,43.945,25.391,32.227
1644359867.070,224.121,12.695,24.414,0.977,26.367
1644359867.074,3.418,22.461,5.859,12.695,13.672
1644359867.077,-191.895,19.043,24.414,47.363,-2.441
1644359867.081,39.062,15.137,40.039,19.531,43.457
1644359867.085,218.262,26.855,42.969,1.465,56.641
1644359867.089,46.387,36.621,58.105,-15.625,7.324
1644359867.093,-207.031,38.086,44.434,-11.230,-15.625
1644359867.067,-70.312,18.555,23.926,-14.160,47.363
1644359867.071,187.012,1.953,15.625,10.742,87.891
1644359867.075,110.840,24.414,32.227,11.230,76.660
1644359867.079,-158.203,33.691,30.762,-3.906,39.062
1644359867.083,-97.168,30.273,27.832,-7.324,51.758
1644359867.087,175.293,25.391,44.434,-30.273,75.195
1644359867.091,143.555,31.250,40.039,-31.738,-8.301
1644359867.094,-115.234,36.621,43.945,-2.930,-7.812
1644359867.098,-191.406,17.090,48.828,20.508,65.430
1644359867.102,88.379,19.043,40.039,3.906,70.312
1644359867.106,228.516,39.551,33.203,5.371,74.707
1644359867.110,11.230,28.809,21.973,8.301,35.645
1644359867.071,-187.988,14.160,9.277,32.227,41.016
1644359867.075,28.809,25.879,22.949,-2.930,49.805
1644359867.079,219.238,29.785,47.363,-27.832,7.812
1644359867.083,57.129,24.902,36.621,-13.184,16.113
1644359867.087,-198.730,15.137,32.715,15.137,21.484
1644359867.091,-75.684,16.113,41.016,17.578,7.812
1644359867.095,187.988,46.875,25.879,9.277,39.062
1644359867.098,132.812,47.852,31.738,0.488,71.777
1644359867.102,-123.535,20.996,42.480,10.254,35.156
1644359867.106,-133.301,24.414,15.137,-1.465,42.480
1644359867.110,152.832,41.992,20.508,-34.180,70.801
1644359867.114,187.012,37.598,46.387,-53.223,61.035
1644359867.076,-92.285,22.461,47.852,-42.480,77.637
1644359867.080,-202.637,16.602,40.527,-22.949,63.477
1644359867.084,50.781,24.414,29.297,-43.945,35.645
1644359867.088,180.176,14.160,28.320,-37.598,34.180
1644359867.092,-17.578,17.578,28.320,-28.320,26.855
1644359867.096,-219.238,27.832,27.344,-13.672,20.996
1644359867.100,-49.316,30.273,41.016,-34.668,39.551
1644359867.103,164.062,48.828,36.621,-52.246,40.527
1644359867.107,56.641,44.922,20.020,-53.711,6.348
1644359867.111,-227.051,25.391,32.715,-61.035,25.879
1644359867.115,-155.273,40.039,48.828,-84.961,3.418
1644359867.119,81.543,64.453,17.578,-100.586,-3.418
1644359867.111,13.672,35.156,3.418,-115.234,53.711
1644359867.115,-257.812,16.113,41.016,-93.262,49.316
1644359867.119,-312.500,25.879,64.941,-131.836,43.945
1644359867.123,-59.570,49.805,64.453,-216.797,34.668
1644359867.127,-27.832,68.848,55.664,-256.836,-10.742
1644359867.131,-313.965,71.289,53.711,-258.789,-14.648
1644359867.135,-454.102,73.730,54.199,-248.047,6.348
1644359867.138,-209.473,80.078,54.688,-299.805,16.113
1644359867.142,-88.379,91.797,45.410,-339.844,-5.859
1644359867.146,-288.086,95.703,43.945,-335.449,-5.371
1644359867.150,-506.836,93.750,49.805,-298.828,31.250
1644359867.154,-338.379,104.980,42.969,-313.477,42.969
1644359867.186,-81.055,119.629,36.133,-323.242,60.547
1644359867.190,-188.965,120.117,39.551,-311.035,-3.418
1644359867.194,-469.238,117.676,40.527,-284.180,-46.875
1644359867.198,-408.203,124.023,37.109,-277.344,28.809
1644359867.202,-120.605,139.160,36.133,-267.578,35.645
1644359867.206,-93.750,143.555,37.598,-257.812,-17.578
1644359867.210,-352.051,135.742,33.691,-261.719,28.320
1644359867.213,-402.344,128.418,29.785,-246.094,68.848
1644359867.217,-116.699,143.555,29.297,-260.254,21.484
1644359867.221,20.020,157.227,25.391,-271.973,34.668
1644359867.225,-211.914,140.137,24.414,-258.301,38.574
1644359867.229,-427.734,124.512,28.809,-210.938,63.477
1644359867.200,-204.102,133.301,24.902,-219.238,31.250
1644359867.204,1.953,141.113,24.902,-192.383,-11.719
1644359867.208,-152.832,127.441,24.902,-167.969,50.781
1644359867.212,-370.117,118.652,20.020,-150.879,41.016
1644359867.216,-204.590,124.023,15.137,-145.996,13.184
1644359867.220,38.086,124.512,12.695,-157.227,62.500
1644359867.224,-3.418,121.582,15.137,-173.340,46.875
1644359867.227,-275.879,109.863,20.020,-144.531,9.766
1644359867.231,-266.602,104.492,17.090,-140.625,0.977
1644359867.235,24.414,112.305,10.742,-149.902,-5.859
1644359867.239,54.688,107.910,13.184,-109.375,26.855
1644359867.243,-209.961,92.285,15.137,-96.680,59.570
1644359867.262,-304.688,94.727,10.254,-83.008,48.340
1644359867.266,-15.137,102.539,5.859,-86.426,-17.090
1644359867.270,99.121,93.750,10.742,-92.285,-17.578
1644359867.274,-134.766,81.055,16.113,-85.938,16.113
1644359867.278,-309.082,78.125,16.602,-65.918,45.410
1644359867.282,-97.168,79.102,13.184,-97.656,48.340
1644359867.286,102.051,76.660,7.324,-108.398,14.160
1644359867.289,-21.484,75.195,9.277,-84.961,53.223
1644359867.293,-253.906,66.406,11.719,-55.664,61.035
1644359867.297,-126.465,62.500,16.113,-62.012,41.992
1644359867.301,88.867,62.988,18.066,-73.242,76.172
1644359867.305,20.508,55.176,19.531,-68.359,67.871
1644359867.292,-227.539,46.387,22.461,-58.594,39.062
1644359867.296,-214.355,47.852,22.461,-81.055,11.230
1644359867.300,60.547,55.664,24.902,-95.215,7.324
1644359867.304,98.145,57.617,22.461,-78.613,11.230
1644359867.308,-162.598,46.387,19.043,-78.125,41.992
1644359867.312,-254.395,45.410,18.555,-59.570,65.918
1644359867.316,38.086,55.664,20.996,-60.547,43.457
1644359867.319,122.070,55.176,21.973,-63.477,64.941
1644359867.323,-108.887,47.363,23.438,-51.758,62.500
1644359867.327,-301.758,31.250,30.273,-20.996,57.617
1644359867.331,-118.164,30.762,22.461,-47.852,27.344
1644359867.335,114.258,41.504,13.184,-51.270,-24.414
1644359867.411,0.000,39.551,21.973,-27.832,16.602
1644359867.415,-253.418,41.504,25.391,-1.465,48.828
1644359867.419,-167.969,44.434,23.438,-8.301,-6.348
1644359867.423,86.914,48.828,22.461,-20.020,-23.438
1644359867.427,75.195,48.828,27.344,-16.602,2.441
1644359867.431,-198.242,37.109,31.250,-17.578,38.086
1644359867.435,-246.582,31.250,26.855,-36.133,19.531
1644359867.438,59.082,44.434,23.438,-55.664,-7.324
1644359867.442,128.906,48.828,27.344,-43.945,27.832
1644359867.446,-153.320,32.715,33.691,-16.113,36.133
1644359867.450,-284.668,20.996,34.668,3.906,77.148
1644359867.454,-37.109,29.785,33.203,-13.672,62.500
1644359867.428,101.074,31.738,36.133,-14.160,54.199
1644359867.432,-81.543,25.391,37.109,-28.809,52.734
1644359867.436,-314.453,20.996,33.691,-17.090,73.242
1644359867.440,-126.953,29.785,34.180,-1.465,53.711
1644359867.444,96.680,28.320,34.180,-7.324,37.109
1644359867.448,-19.043,20.996,32.715,-43.457,-2.441
1644359867.452,-285.156,22.949,30.273,-15.625,-7.812
1644359867.455,-223.633,25.879,27.344,-1.953,33.203
1644359867.459,59.570,34.180,33.203,-8.789,18.555
1644359867.463,50.781,19.531,34.180,-13.184,9.766
1644359867.467,-193.359,-8.301,29.785,-14.648,6.348
1644359867.471,-233.398,0.488,26.855,-6.348,18.066
1644359867.433,2.441,27.832,31.250,-38.574,12.695
1644359867.437,88.379,42.969,33.203,-39.551,9.277
1644359867.441,-144.531,39.551,32.227,-26.855,21.973
1644359867.445,-311.523,28.320,36.133,-13.672,36.133
1644359867.449,-54.688,24.414,36.133,-41.504,8.301
1644359867.453,134.766,20.996,31.250,-49.805,31.250
1644359867.457,-33.691,10.742,26.367,-38.574,64.941
1644359867.460,-267.090,16.602,37.598,-0.488,78.613
1644359867.464,-132.812,18.555,40.039,-20.020,61.035
1644359867.468,104.492,20.020,31.250,-22.949,34.180
1644359867.472,41.504,27.832,29.297,-0.488,56.641
1644359867.476,-217.285,28.320,35.156,9.277,30.762
1644359867.486,-191.406,22.949,37.109,-16.602,15.625
1644359867.490,65.918,6.836,27.344,-41.016,-34.180
1644359867.494,90.332,10.254,27.832,-16.602,-18.066
1644359867.498,-158.691,-7.812,27.344,21.484,55.176
1644359867.502,-257.324,-12.695,36.621,18.066,86.426
1644359867.506,12.695,20.508,37.598,-17.578,85.449
1644359867.510,130.371,22.949,20.020,-0.977,81.055
1644359867.513,-109.863,20.020,35.645,23.926,32.227
1644359867.517,-289.062,22.949,46.387,45.410,19.531
1644359867.521,-51.758,8.789,39.062,20.508,51.758
1644359867.525,178.223,-9.766,29.297,9.277,64.941
1644359867.529,35.645,11.230,28.809,25.879,84.473
1644359867.530,-261.719,6.836,31.250,69.336,81.055
1644359867.534,-151.855,-0.488,24.414,41.992,56.152
1644359867.538,125.977,18.066,40.527,17.578,47.363
1644359867.542,101.074,17.090,54.199,23.438,14.648
1644359867.546,-177.246,-9.766,45.898,32.227,-0.977
1644359867.550,-187.012,-2.441,41.504,35.645,-21.484
1644359867.554,112.305,0.977,54.688,22.461,-5.859
1644359867.557,177.246,-26.367,48.340,39.551,29.297
1644359867.561,-60.547,-42.480,39.062,45.898,49.316
1644359867.565,-182.617,-55.664,20.996,37.109,59.570
1644359867.569,42.480,-10.742,5.371,19.531,33.203
1644359867.573,171.875,39.062,39.551,31.250,30.273
1644359867.711,-20.020,28.809,46.875,35.645,5.371
1644359867.715,-236.328,0.977,40.039,72.754,31.250
1644359867.719,-46.875,-6.836,36.621,65.430,42.480
1644359867.723,182.617,-12.695,25.391,61.523,30.273
1644359867.727,71.289,-22.461,24.414,73.730,21.973
1644359867.731,-169.922,-29.297,40.039,105.469,25.879
1644359867.735,-69.336,-62.012,58.105,125.977,58.594
1644359867.738,187.988,-62.500,52.734,96.680,17.578
1644359867.742,129.395,-26.855,14.648,103.516,33.691
1644359867.746,-112.793,4.395,37.109,148.926,67.383
1644359867.750,-91.309,-2.930,63.965,118.652,7.324
1644359867.754,161.133,-22.461,55.176,70.801,39.062
1644359867.740,204.102,-20.508,58.105,76.660,53.711
1644359867.744,-30.273,-26.855,65.918,79.590,22.461
1644359867.748,-156.738,-41.016,70.312,105.469,15.137
1644359867.752,92.773,-48.828,61.035,111.816,-18.555
1644359867.756,270.020,-32.715,53.711,134.277,-5.371
1644359867.760,116.699,-36.621,58.105,171.387,-0.977
1644359867.764,-97.656,-47.363,35.645,220.703,-20.020
1644359867.767,85.449,-30.762,5.371,198.730,16.113
1644359867.771,314.453,-24.414,15.625,166.504,30.273
1644359867.775,229.492,-14.648,37.109,160.156,28.320
1644359867.779,-17.090,-14.160,40.039,176.758,41.992
1644359867.783,17.578,-22.461,57.129,180.664,44.434
1644359867.818,297.363,-23.438,69.336,161.133,37.598
1644359867.822,309.082,-17.090,43.457,148.926,26.855
1644359867.826,27.344,-12.695,41.016,161.133,18.555
1644359867.830,-14.160,-23.438,39.551,198.730,61.035
1644359867.834,261.719,-20.996,13.184,166.016,67.383
1644359867.838,321.289,4.883,-10.742,126.465,0.977
1644359867.842,93.750,-46.875,5.371,154.785,26.855
1644359867.845,-71.289,-51.758,-3.906,156.250,64.453
1644359867.849,172.852,27.344,-23.926,128.906,3.906
1644359867.853,360.840,22.949,3.418,128.418,8.789
1644359867.857,164.551,-2.930,34.180,85.938,43.457
1644359867.861,-84.961,-14.648,20.508,77.148,32.227
1644359867.833,60.059,-20.508,6.836,68.359,45.898
1644359867.837,309.082,-14.648,13.184,92.285,43.945
1644359867.841,231.445,-18.555,7.324,98.145,-56.152
1644359867.845,-33.691,-36.621,12.695,114.258,-28.809
1644359867.849,20.020,-26.855,27.832,128.418,42.969
1644359867.853,305.176,-2.441,39.551,109.863,48.340
1644359867.857,329.590,2.930,26.367,119.141,39.551
1644359867.860,57.617,2.930,10.742,153.320,25.879
1644359867.864,-27.832,4.395,-5.371,163.086,57.617
1644359867.868,251.953,8.301,-34.180,113.281,63.477
1644359867.872,359.863,16.602,-19.043,101.562,61.035
1644359867.876,128.418,-5.859,31.738,117.188,45.410
1644359867.906,-86.914,-40.527,66.895,128.418,25.391
1644359867.910,124.512,-24.902,59.570,118.164,2.441
1644359867.914,336.914,-11.230,40.527,134.766,23.926
1644359867.918,198.242,-15.625,25.879,112.305,85.449
1644359867.922,-55.176,-5.859,19.531,125.488,43.945
1644359867.926,56.641,18.555,28.320,127.930,15.625
1644359867.930,293.457,29.785,6.348,100.098,18.555
1644359867.933,228.516,8.301,9.277,104.492,-2.930
1644359867.937,-41.992,-17.578,20.508,107.910,4.883
1644359867.941,-25.879,1.953,3.906,104.980,30.273
1644359867.945,258.301,16.602,16.113,114.258,36.133
1644359867.949,293.945,3.418,26.367,95.703,41.504
1644359867.921,20.996,-20.508,25.879,90.332,48.340
1644359867.925,-104.492,-26.367,42.480,106.934,64.453
1644359867.929,160.645,4.883,48.340,98.145,80.078
1644359867.933,295.410,8.301,40.039,106.445,17.578
1644359867.937,95.703,0.488,28.320,116.211,67.871
1644359867.941,-118.164,-7.324,3.906,121.094,39.551
1644359867.945,66.895,-3.906,0.488,76.660,-7.812
1644359867.948,279.785,9.277,29.785,59.570,65.430
1644359867.952,143.066,3.418,21.484,67.871,-11.230
1644359867.956,-136.719,-12.207,24.902,98.633,-20.508
1644359867.960,-26.367,-4.883,42.480,68.359,46.387
1644359867.964,243.652,12.207,39.551,40.527,12.207
1644359867.926,191.895,15.625,34.668,55.664,-50.781
1644359867.930,-74.219,-4.883,20.508,83.984,-8.789
1644359867.934,-110.352,-15.137,11.719,80.078,32.227
1644359867.938,168.457,15.137,2.441,54.199,-1.953
1644359867.942,250.488,38.086,-24.414,55.664,9.766
1644359867.946,-4.395,20.020,14.648,49.805,20.996
1644359867.950,-150.879,-6.836,62.500,71.777,2.930
1644359867.953,95.215,1.953,56.152,40.039,18.555
1644359867.957,249.023,3.906,31.738,12.207,9.766
1644359867.961,68.848,0.488,31.738,34.668,-8.789
1644359867.965,-145.020,5.859,44.434,67.871,24.414
1644359867.969,29.297,17.090,17.090,42.480,24.414
1644359868.058,242.188,14.648,-6.836,40.039,-17.578
1644359868.062,133.789,7.324,20.020,62.012,-20.996
1644359868.066,-138.672,9.277,31.738,78.125,55.664
1644359868.070,-95.215,0.000,17.578,42.480,74.219
1644359868.074,194.824,4.395,49.805,19.043,52.246
1644359868.078,217.285,24.902,57.129,40.039,35.645
1644359868.082,-77.637,11.230,16.602,56.641,46.875
1644359868.085,-152.832,-1.953,3.418,51.758,53.711
1644359868.089,135.742,15.625,8.301,16.602,32.227
1644359868.093,218.750,21.973,11.230,9.766,27.344
1644359868.097,-23.926,13.184,25.879,20.508,12.695
1644359868.101,-174.316,7.324,29.785,46.875,17.090
1644359868.063,70.801,8.789,17.578,28.809,52.246
1644359868.067,236.816,9.277,30.762,2.930,35.645
1644359868.071,58.105,11.230,20.996,0.488,41.992
1644359868.075,-189.941,8.789,9.277,25.391,36.133
1644359868.079,-39.551,8.301,12.207,-4.395,34.668
1644359868.083,207.031,17.090,19.531,-31.738,57.617
1644359868.087,125.000,10.254,33.203,-5.859,74.219
1644359868.090,-155.762,-9.766,22.461,20.508,53.223
1644359868.094,-125.488,10.254,-3.418,22.949,40.039
1644359868.098,162.598,29.785,0.977,0.000,28.320
1644359868.102,187.012,22.461,41.016,0.488,22.461
1644359868.106,-73.242,12.695,51.270,35.645,54.199
1644359868.071,-169.434,-19.043,-11.719,15.137,65.430
1644359868.075,72.266,-0.488,-18.555,-35.156,25.391
1644359868.079,185.059,32.715,51.758,-35.645,26.855
1644359868.083,-29.785,14.648,61.523,-30.762,50.293
1644359868.087,-226.562,4.883,34.180,-8.789,42.969
1644359868.091,-13.184,1.953,34.180,-21.973,15.137
1644359868.095,188.965,1.953,31.738,-11.230,36.133
1644359868.098,51.758,14.648,30.273,6.348,61.523
1644359868.102,-182.617,-9.766,22.461,17.090,54.688
1644359868.106,-48.340,-11.719,17.090,27.344,72.266
1644359868.110,196.777,36.133,25.879,11.230,77.148
1644359868.114,126.953,36.621,22.461,-27.344,62.988
1644359868.075,-113.770,24.414,34.180,4.395,23.438
1644359868.079,-47.852,48.340,56.641,60.547,34.668
1644359868.083,202.148,35.156,46.387,31.738,69.336
1644359868.087,178.711,9.277,8.789,-18.555,39.062
1644359868.091,-85.938,16.113,-2.441,-19.531,-11.719
1644359868.095,-171.387,18.066,7.324,3.418,57.617
1644359868.099,130.859,21.484,8.301,-4.883,76.172
1644359868.102,273.926,32.227,-1.953,-9.766,-19.531
1644359868.106,60.547,34.668,-10.254,-6.348,4.883
1644359868.110,-120.117,27.832,-8.789,44.922,67.383
1644359868.114,86.914,23.926,-30.762,36.621,57.617
1644359868.118,284.180,12.207,-7.324,20.996,66.406
1644359868.236,152.344,6.836,30.762,30.762,67.871
1644359868.240,-114.258,29.297,17.578,37.598,-1.953
1644359868.244,-22.949,20.996,37.598,37.598,39.062
1644359868.248,241.699,29.297,34.668,48.828,89.844
1644359868.252,199.707,46.875,-8.301,22.461,70.312
1644359868.256,-67.383,37.109,9.277,13.184,58.594
1644359868.260,-117.188,34.180,40.039,16.113,8.789
1644359868.263,135.742,31.738,37.598,-12.207,-5.859
1644359868.267,198.730,34.668,20.996,-7.812,36.133
1644359868.271,-62.012,20.508,17.578,-6.348,81.055
1644359868.275,-185.059,7.324,40.527,6.348,62.012
1644359868.279,81.055,24.902,35.645,0.977,-27.344
1644359868.267,233.887,31.738,32.227,9.277,-25.879
1644359868.271,35.645,7.812,-0.488,19.043,5.371
1644359868.275,-186.035,5.859,12.695,14.160,18.555
1644359868.279,-18.066,34.668,26.367,-35.645,38.574
1644359868.283,222.656,49.805,6.836,-49.316,34.180
1644359868.287,122.070,31.250,41.016,-42.480,18.555
1644359868.291,-175.781,-6.836,34.668,-20.020,50.781
1644359868.294,-89.844,26.855,24.414,-16.602,78.125
1644359868.298,191.895,54.688,9.277,-38.574,76.172
1644359868.302,145.020,40.527,21.484,-58.594,43.457
1644359868.306,-132.812,33.691,28.809,-46.875,35.645
1644359868.310,-167.969,9.277,21.973,-24.902,55.664
1644359868.272,112.305,19.043,26.855,-52.246,44.922
1644359868.276,219.727,41.016,54.688,-27.344,43.945
1644359868.280,-3.418,15.625,2.930,-5.371,51.270
1644359868.284,-170.898,1.465,-55.664,-27.832,35.645
1644359868.288,77.148,31.738,62.988,-45.898,44.434
1644359868.292,212.891,35.156,90.820,-61.523,71.289
1644359868.296,6.348,16.113,45.410,-62.012,26.855
1644359868.299,-220.215,8.789,28.320,-34.668,17.578
1644359868.303,-60.059,15.137,29.297,-31.250,41.992
1644359868.307,190.918,34.180,31.738,0.000,54.688
1644359868.311,114.746,20.996,9.766,-4.395,50.293
1644359868.315,-130.859,-3.906,9.277,22.949,83.008
1644359868.280,-86.914,3.906,39.551,40.039,103.027
