timestamps,TP9,AF7,AF8,TP10,Right AUX
1635968532,3.418,36.621,33.691,24.902,61.035
1635968532,-18.066,36.621,32.227,30.273,67.871
1635968532,32.227,31.25,31.25,25.879,94.238
1635968532,88.867,30.273,31.738,15.137,110.352
1635968532,27.832,31.738,35.645,16.602,94.727
1635968532,-26.855,34.18,31.738,21.484,85.938
1635968532,10.254,38.086,24.902,16.113,80.566
1635968532,81.055,30.273,27.832,3.906,54.688
1635968532,40.039,26.855,24.902,8.301,79.102
1635968532,-33.203,34.668,20.996,19.043,88.867
1635968532,-14.648,36.621,26.367,13.672,54.199
1635968532,54.199,29.297,26.367,0.488,79.59
1635968532,54.688,26.855,28.32,7.324,91.797
1635968532,-21.484,29.297,31.25,21.484,73.73
1635968532,-25.879,28.809,29.297,21.973,70.312
1635968532,41.992,33.203,30.762,17.09,70.801
1635968532,79.59,36.133,39.062,17.578,57.129
1635968532,10.254,34.18,33.691,25.391,45.41
1635968532,-27.832,34.18,25.391,24.414,47.363
1635968532,15.625,29.297,32.715,15.137,45.41
1635968532,75.684,22.949,37.598,8.789,64.453
1635968532,24.414,27.344,38.086,10.742,78.125
1635968532,-28.809,33.691,33.203,21.973,72.754
1635968532,2.93,32.227,32.227,23.926,63.965
1635968532,71.289,31.25,34.668,12.695,65.43
1635968532,57.129,27.832,30.273,12.695,49.316
1635968532,-14.648,31.738,28.32,21.484,51.27
1635968532,-13.184,39.551,33.691,23.438,74.707
1635968532,57.129,32.715,30.273,15.137,49.316
1635968532,69.824,26.855,24.414,6.836,56.641
1635968532,-5.859,27.344,27.344,18.555,70.801
1635968532,-24.902,26.367,29.785,26.855,56.641
1635968532,31.25,26.367,38.086,19.043,66.895
1635968532,73.242,30.762,38.086,12.695,74.219
1635968532,11.719,32.227,21.973,16.113,74.219
1635968532,-22.461,28.32,21.973,20.02,67.383
1635968532,14.648,29.297,29.297,13.184,62.5
1635968532,70.312,29.297,24.902,4.883,68.359
1635968532,26.367,25.879,26.367,15.137,58.594
1635968532,-30.273,26.855,30.273,22.461,47.363
1635968532,-0.977,22.949,27.832,20.508,12.207
1635968532,68.359,23.926,26.855,12.695,-6.348
1635968532,50.293,27.344,24.902,8.301,25.391
1635968532,-27.344,22.461,20.996,14.16,21.973
1635968532,-15.625,19.531,22.949,12.207,19.531
1635968532,51.27,25.879,18.555,6.348,68.848
1635968532,64.453,26.855,21.484,5.859,71.777
1635968532,-9.766,23.926,28.32,14.16,53.711
1635968532,-33.691,28.32,30.273,20.02,34.18
1635968532,21.973,31.25,32.715,15.137,38.574
1635968532,77.148,29.297,27.344,9.766,52.246
1635968532,14.648,28.32,24.414,19.043,44.922
1635968532,-34.668,29.785,25.391,22.461,16.602
1635968532,2.93,28.32,22.461,17.09,1.465
1635968532,65.43,25.391,22.461,8.789,44.922
1635968532,32.227,28.32,25.391,13.184,44.922
1635968532,-31.738,31.25,22.949,21.484,14.648
1635968532,-16.602,28.32,25.391,12.695,26.367
1635968532,56.641,29.785,33.691,0,34.18
1635968533,56.641,33.203,24.902,0.977,29.785
1635968533,-20.996,32.227,20.02,14.16,23.438
1635968533,-25.391,31.25,28.32,17.578,29.785
1635968533,40.039,32.227,25.879,8.789,49.316
1635968533,65.43,32.227,21.973,0.977,73.73
1635968533,-7.812,30.762,28.809,8.301,74.219
1635968533,-31.738,30.273,26.855,15.137,32.227
1635968533,16.602,28.809,23.438,15.137,11.23
1635968533,75.195,29.785,24.414,8.789,12.207
1635968533,29.297,32.715,28.809,16.602,34.668
1635968533,-20.996,33.203,29.297,24.902,43.945
1635968533,7.812,33.691,29.785,19.531,62.5
1635968533,80.078,37.598,31.25,7.812,58.594
1635968533,45.898,36.621,27.344,9.277,12.695
1635968533,-29.785,33.203,30.762,22.949,25.391
1635968533,-12.695,32.227,34.18,25.391,44.434
1635968533,51.27,28.809,30.273,14.648,70.312
1635968533,55.664,27.832,26.367,11.23,56.641
1635968533,-19.531,30.273,23.438,16.602,19.043
1635968533,-27.832,29.785,26.855,19.043,20.02
1635968533,36.621,30.273,32.227,12.207,47.363
1635968533,75.195,33.203,32.715,10.742,71.289
1635968533,9.766,24.902,30.273,22.949,26.855
1635968533,-25.879,24.902,29.785,20.996,2.441
1635968533,17.578,27.832,30.762,16.602,21.484
1635968533,70.312,26.855,24.902,5.371,42.969
1635968533,20.996,29.785,22.461,7.324,45.898
1635968533,-28.32,27.832,23.926,19.531,19.043
1635968533,-10.254,30.762,23.438,12.207,7.324
1635968533,54.688,32.715,19.531,2.93,12.695
1635968533,47.363,26.855,16.113,9.277,23.438
1635968533,-27.344,25.879,22.949,16.602,34.668
1635968533,-22.949,25.391,26.855,16.602,49.805
1635968533,56.152,26.855,25.879,9.766,32.227
1635968533,71.289,28.32,29.297,7.812,16.602
1635968533,-8.789,23.438,33.691,15.137,19.043
1635968533,-24.414,20.508,31.25,16.602,-24.902
1635968533,24.414,22.949,28.32,6.348,-29.785
1635968533,68.359,26.367,26.855,1.465,40.039
1635968533,11.23,26.367,26.367,10.742,27.344
1635968533,-32.715,29.785,25.391,10.742,6.348
1635968533,5.859,30.762,24.414,7.324,1.953
1635968533,71.777,30.273,26.367,4.395,4.395
1635968533,30.273,28.32,28.32,7.812,23.438
1635968533,-32.227,25.879,24.414,19.531,6.348
1635968533,-12.207,28.809,22.461,17.09,1.465
1635968533,48.828,34.18,29.297,2.93,18.555
1635968533,43.457,32.227,32.227,6.348,-2.93
1635968533,-20.508,28.809,25.391,14.16,-17.09
1635968533,-18.555,30.273,22.949,14.16,25.391
1635968533,42.48,27.832,28.32,12.695,48.34
1635968533,61.035,23.926,27.832,5.859,13.672
1635968533,-12.695,27.344,27.344,17.09,12.695
1635968533,-36.621,31.738,28.809,25.391,18.555
1635968533,15.625,30.762,29.785,16.113,17.09
1635968533,72.754,30.762,25.879,10.254,21.484
1635968533,16.113,21.484,20.02,16.602,-20.508
1635968533,-30.273,19.043,25.391,19.043,-35.156
1635968533,1.953,28.32,33.203,17.09,-2.93
1635968533,63.965,30.273,32.715,15.137,12.695
1635968533,29.297,29.785,26.855,12.695,23.438
1635968533,-33.691,34.668,26.367,14.648,-2.441
1635968533,-9.766,37.598,26.855,17.09,14.16
1635968533,58.105,33.203,26.367,10.742,42.969
1635968533,53.711,22.949,24.414,8.789,20.996
1635968533,-22.461,23.926,25.391,20.02,11.719
1635968533,-27.344,28.32,31.25,24.414,-24.414
1635968533,34.18,29.297,26.367,13.184,-44.922
1635968533,67.871,30.762,22.949,3.418,-20.02
1635968533,-2.441,25.879,31.738,15.137,21.973
1635968533,-35.156,29.297,32.715,18.555,7.324
1635968533,10.254,38.086,29.785,9.766,6.348
1635968533,69.824,31.25,34.18,7.812,59.57
1635968533,20.996,20.02,34.668,11.23,29.297
1635968533,-28.32,22.949,28.809,16.113,7.812
1635968533,3.906,28.32,24.902,11.719,12.207
1635968533,70.801,35.156,23.926,3.418,13.672
1635968533,46.875,35.156,28.809,8.789,38.574
1635968533,-25.391,33.203,29.297,15.625,11.23
1635968533,-19.531,36.133,29.297,15.625,-18.066
1635968533,47.363,33.203,28.32,0.977,-20.02
1635968533,62.5,32.227,23.926,-2.441,12.207
1635968533,-7.324,33.691,28.32,13.672,27.832
1635968533,-19.531,35.645,31.738,17.578,41.504
1635968533,38.086,36.621,29.785,15.625,43.457
1635968533,81.055,35.156,29.297,9.277,-8.789
1635968533,16.113,36.621,32.227,11.719,-0.488
1635968533,-23.438,37.109,28.809,16.602,26.855
1635968533,20.02,38.086,20.508,14.16,7.324
1635968533,78.125,33.691,22.461,10.254,-22.949
1635968533,33.203,24.902,32.715,14.16,-3.418
1635968533,-24.902,31.738,34.668,26.367,-0.488
1635968533,-6.348,37.598,24.902,23.926,0.488
1635968533,62.5,36.133,24.414,6.836,2.441
1635968533,51.758,35.645,28.809,4.883,-17.09
1635968533,-24.414,39.551,28.32,16.602,-21.973
1635968533,-28.809,38.574,28.809,18.555,-28.32
1635968533,32.715,32.227,32.227,8.301,1.465
1635968533,59.082,30.762,36.621,3.418,26.367
1635968533,-10.742,29.785,34.668,11.23,-0.977
1635968533,-36.621,32.227,32.227,14.16,-20.02
1635968533,15.625,32.227,33.691,7.812,-6.348
1635968533,67.383,28.32,34.668,4.395,-9.766
1635968533,10.742,26.855,33.691,16.113,-29.297
1635968533,-37.598,27.832,29.297,16.113,-34.668
1635968533,5.859,29.297,30.762,7.812,-14.648
1635968533,75.195,30.273,28.809,5.859,-1.465
1635968533,32.227,26.855,27.344,9.277,7.324
1635968533,-35.645,33.691,33.691,14.648,-2.441
1635968533,-24.414,33.691,33.691,10.254,-9.277
1635968533,45.41,27.344,32.715,6.348,-2.441
1635968533,47.363,27.832,27.832,5.371,-2.441
1635968533,-23.926,25.391,28.809,10.254,18.555
1635968533,-20.508,28.809,39.062,19.043,-14.648
1635968533,37.598,33.691,33.691,10.742,-45.41
1635968533,67.871,29.297,30.762,3.418,6.348
1635968533,7.812,26.367,35.156,19.043,41.504
1635968533,-17.578,27.832,28.32,26.367,13.184
1635968533,29.297,34.668,21.973,18.555,-14.648
1635968533,81.055,32.715,27.832,7.812,6.836
1635968533,28.809,30.273,35.645,11.719,24.414
1635968533,-16.113,34.18,39.551,22.461,1.953
1635968533,15.625,31.25,32.715,20.02,-22.461
1635968533,83.008,32.715,22.949,7.812,-9.277
1635968533,56.152,31.25,24.902,8.789,20.02
1635968533,-16.602,31.25,27.344,27.344,28.32
1635968533,-6.348,33.203,26.855,30.273,-10.254
1635968533,55.176,30.273,27.832,11.719,-34.18
1635968533,58.594,26.367,27.344,6.348,-42.48
1635968533,-10.254,24.414,26.855,19.043,-11.23
1635968533,-22.949,29.297,28.32,24.902,-10.254
1635968533,33.203,30.762,25.391,17.578,-10.742
1635968533,61.035,32.227,24.414,8.789,-12.695
1635968533,-2.93,29.785,25.879,14.16,-17.09
1635968533,-28.809,26.855,25.879,19.531,20.02
1635968533,13.672,32.227,28.32,14.648,9.766
1635968533,72.266,27.832,32.227,7.812,22.461
1635968533,26.855,29.297,32.227,15.137,13.672
1635968533,-32.227,35.156,30.762,20.508,-22.461
1635968533,-9.277,36.621,29.785,18.555,-22.949
1635968533,57.617,36.133,23.926,12.207,3.906
1635968533,41.504,28.809,23.926,9.766,19.043
1635968533,-22.461,26.367,29.297,22.461,-17.578
1635968533,-11.23,28.32,23.926,23.438,-51.758
1635968533,53.711,23.926,23.926,10.742,-2.441
1635968533,71.777,23.926,31.738,9.277,31.738
1635968533,-2.93,33.203,29.785,22.461,10.742
1635968533,-24.414,31.25,31.25,21.973,-13.672
1635968533,30.273,25.879,37.598,14.648,11.23
1635968533,77.637,30.273,34.668,11.23,20.02
1635968533,15.625,34.668,30.762,19.043,-3.906
1635968533,-23.926,29.297,34.668,28.32,-16.602
1635968533,19.531,23.438,36.621,27.344,-58.105
1635968533,82.52,29.785,32.715,11.719,-22.949
1635968533,38.574,35.645,32.227,11.719,27.832
1635968533,-21.484,34.18,26.367,26.367,-8.789
1635968533,2.441,32.227,21.484,27.832,-17.578
1635968533,74.219,30.762,23.926,16.602,-6.348
1635968533,63.477,31.738,27.344,17.09,29.785
1635968533,-14.16,35.645,29.785,26.367,23.438
1635968533,-17.09,30.273,29.297,19.531,6.836
1635968533,43.945,29.785,27.832,15.137,25.879
1635968533,71.289,30.762,30.762,17.09,4.883
1635968533,-3.418,26.855,35.645,21.484,-30.762
1635968533,-31.25,28.32,34.668,16.113,-30.762
1635968533,25.879,33.203,32.227,12.695,-13.672
1635968533,77.637,38.086,26.855,7.812,-19.531
1635968533,18.066,32.227,26.367,14.16,-37.598
1635968533,-17.09,28.809,38.086,32.227,-19.531
1635968533,28.32,35.645,42.969,36.133,0.488
1635968533,71.777,38.086,35.645,9.277,9.766
1635968533,34.18,32.715,28.32,0.488,4.395
1635968533,-20.508,28.809,28.809,16.602,10.254
1635968533,-11.719,28.809,30.273,18.555,-19.531
1635968533,50.293,27.344,27.344,8.789,-36.133
1635968533,49.805,28.32,25.879,5.371,-25.391
1635968533,-24.414,29.297,24.414,16.602,-58.594
1635968533,-29.297,23.438,24.414,17.578,-44.922
1635968533,32.227,19.531,25.879,9.277,-9.277
1635968533,66.895,19.531,26.855,4.395,12.207
1635968533,-4.395,19.043,20.02,10.254,-19.531
1635968533,-34.668,25.879,20.508,14.16,-69.824
1635968533,18.555,34.18,28.32,12.207,-49.805
1635968533,75.684,30.273,29.297,7.324,-42.48
1635968533,20.996,22.461,25.879,8.301,-18.066
1635968533,-29.785,22.949,22.949,19.043,-28.809
1635968533,-1.953,25.391,23.926,21.973,-98.145
1635968533,62.5,23.438,22.461,8.301,-107.422
1635968533,43.945,26.367,20.996,6.836,-68.848
1635968533,-22.461,26.367,25.879,17.09,-36.621
1635968533,-20.02,27.344,24.902,13.672,-69.336
1635968533,44.922,33.691,26.855,5.371,-60.547
1635968533,60.547,31.738,31.738,9.277,-57.129
1635968533,-23.438,24.414,28.809,18.066,-92.285
1635968533,-39.551,23.438,23.438,14.648,-44.922
1635968533,26.855,22.949,25.879,8.301,-59.082
1635968533,62.5,12.207,31.25,7.324,-87.891
1635968533,-5.859,15.137,29.297,19.531,-56.641
1635968533,-35.645,29.297,24.414,31.25,-45.41
1635968533,8.301,32.715,25.391,27.832,-67.871
1635968533,69.824,33.691,7.812,11.719,-103.516
1635968533,24.902,30.273,12.695,9.277,-67.383
1635968533,-35.645,25.391,32.715,15.625,-28.809
1635968533,-10.254,29.785,28.32,13.672,-37.109
1635968533,57.129,31.25,25.879,5.371,-10.742
1635968533,50.293,34.668,25.391,6.348,-18.066
1635968533,-20.996,38.574,22.461,15.625,-47.363
1635968533,-27.344,28.809,16.113,13.672,-36.133
1635968533,40.527,22.461,22.461,5.371,-36.133
1635968533,61.035,18.555,35.156,0,-21.973
1635968533,-13.184,16.113,35.645,7.324,-26.367
1635968533,-32.715,19.531,33.691,10.254,-50.781
1635968533,20.996,24.414,34.18,0.977,-33.691
1635968533,74.219,27.344,33.691,-2.93,42.48
1635968533,9.766,31.738,34.668,8.789,64.453
1635968533,-34.668,33.691,36.133,14.648,34.668
1635968533,11.23,30.762,42.969,17.09,-43.457
1635968533,74.707,31.738,50.781,14.648,-41.016
1635968533,41.016,34.668,49.805,18.066,41.504
1635968533,-18.555,34.18,41.504,22.949,40.527
1635968533,0.977,29.297,39.551,20.996,-25.391
1635968533,63.965,32.715,39.551,12.207,-8.789
1635968533,54.688,38.086,36.133,11.719,17.09
1635968533,-12.207,34.18,41.504,26.855,-27.832
1635968533,-18.555,27.832,51.27,26.367,-20.02
1635968533,41.504,21.973,48.828,15.625,4.883
1635968533,72.754,24.414,44.434,11.23,-7.324
1635968533,3.906,25.879,45.898,20.996,-21.973
1635968533,-21.973,29.297,44.434,27.832,-3.906
1635968533,24.902,31.25,46.387,15.137,-7.324
1635968533,74.219,27.832,45.898,6.348,-35.645
1635968533,20.996,31.738,44.434,17.09,16.602
1635968533,-29.785,33.203,48.34,23.926,-17.09
1635968533,-0.488,33.691,47.363,20.508,8.301
1635968533,68.359,32.227,43.457,13.184,34.668
1635968533,44.434,28.32,43.457,13.184,-23.438
1635968533,-21.973,33.203,41.504,21.484,36.621
1635968533,-14.16,32.715,34.18,22.461,13.184
1635968533,50.293,32.715,35.645,14.16,-33.691
1635968533,59.082,36.621,41.992,4.883,-16.113
1635968533,-6.836,34.18,43.945,13.184,20.996
1635968533,-17.578,30.762,40.527,25.391,65.918
1635968533,34.668,31.25,34.668,22.461,-28.809
1635968533,78.613,37.109,32.227,13.184,-74.219
1635968533,14.648,38.086,34.18,16.602,-1.465
1635968533,-27.832,38.086,36.133,17.578,34.18
1635968533,19.531,36.621,32.227,11.719,13.672
1635968533,77.148,34.18,30.273,6.348,1.465
1635968533,15.625,36.133,31.25,5.371,3.906
1635968533,-44.922,33.691,27.832,10.254,-14.648
1635968533,-18.555,33.203,28.809,15.137,8.789
1635968533,48.828,35.156,28.32,3.418,-11.719
1635968533,41.504,29.297,26.367,4.395,-13.672
1635968533,-20.996,28.32,27.832,15.625,-37.109
1635968533,-18.066,35.156,24.902,13.672,-36.133
1635968533,49.316,39.062,26.367,12.207,0.977
1635968534,70.801,35.645,34.668,12.207,9.277
1635968534,-7.324,35.645,30.762,15.137,44.434
1635968534,-29.297,36.621,20.02,15.137,47.852
1635968534,28.809,36.621,23.438,8.789,60.059
1635968534,78.613,39.062,27.344,4.395,60.547
1635968534,19.043,39.551,25.391,18.555,32.227
1635968534,-21.973,40.039,32.227,25.391,33.203
1635968534,15.137,38.574,38.574,19.043,30.273
1635968534,73.242,35.645,33.691,11.23,20.996
1635968534,44.922,31.738,23.926,11.23,14.16
1635968534,-8.301,36.621,24.902,21.973,48.34
1635968534,10.254,42.969,24.902,21.484,23.438
1635968534,83.008,41.992,23.438,13.672,7.324
1635968534,72.754,40.039,29.297,15.625,52.734
1635968534,-7.812,35.156,26.367,28.32,51.27
1635968534,-14.16,36.621,22.461,30.273,6.348
1635968534,51.758,38.574,29.785,18.066,-7.324
1635968534,75.195,34.18,31.25,10.742,17.09
1635968534,0.977,31.25,25.879,20.996,24.414
1635968534,-23.438,29.297,25.391,28.809,3.418
1635968534,26.855,28.32,25.391,21.484,-13.184
1635968534,84.473,35.645,22.949,10.742,72.754
1635968534,31.25,35.645,29.297,18.066,101.074
1635968534,-14.648,29.785,34.18,25.879,-4.395
1635968534,20.02,37.598,24.902,23.926,-15.625
1635968534,76.66,36.133,25.879,14.648,-4.395
1635968534,46.387,26.855,32.715,15.625,-20.508
1635968534,-19.531,26.367,31.25,23.926,-25.879
1635968534,-6.348,26.367,30.273,23.438,0.488
1635968534,63.965,24.902,33.691,17.09,29.785
1635968534,62.988,26.367,34.668,15.625,15.137
1635968534,-8.301,27.832,32.227,20.02,28.809
1635968534,-23.438,29.297,30.762,12.695,52.246
1635968534,33.691,32.715,29.297,12.207,65.918
1635968534,65.918,34.18,25.391,13.184,69.824
1635968534,-2.441,29.297,26.367,20.996,36.133
1635968534,-23.438,25.391,28.32,27.344,-10.254
1635968534,20.996,29.785,29.785,22.461,-20.508
1635968534,78.125,33.691,32.227,18.066,49.316
1635968534,25.391,32.227,34.18,21.973,35.156
1635968534,-27.832,28.809,30.762,26.367,-20.508
1635968534,8.789,22.949,26.367,18.555,12.695
1635968534,75.684,22.949,26.855,5.859,1.953
1635968534,47.363,26.367,28.809,5.859,3.418
1635968534,-25.879,30.273,27.832,17.09,49.805
1635968534,-8.789,31.25,22.949,21.484,78.125
1635968534,59.082,32.715,29.785,15.625,49.805
1635968534,67.871,37.109,33.691,14.16,20.508
1635968534,-2.93,36.133,28.32,21.484,21.484
1635968534,-12.695,30.273,25.391,22.461,24.414
1635968534,37.598,23.438,24.902,10.742,6.836
1635968534,74.219,28.809,29.785,3.418,9.766
1635968534,15.625,35.156,28.809,18.066,58.105
1635968534,-20.996,34.18,24.902,23.926,15.625
1635968534,20.02,40.039,28.32,19.531,-1.953
1635968534,83.984,41.016,30.273,11.23,65.43
1635968534,46.387,29.297,28.32,14.648,39.551
1635968534,-13.672,25.879,26.855,27.832,15.625
1635968534,2.93,30.762,26.367,27.344,54.688
1635968534,64.453,33.203,33.203,16.602,48.828
1635968534,50.781,29.785,33.203,11.719,51.27
1635968534,-23.926,28.809,23.438,18.555,7.324
1635968534,-21.973,30.273,22.949,20.02,-10.742
1635968534,43.457,27.344,28.32,12.695,0.488
1635968534,56.152,27.832,29.297,5.859,-9.277
1635968534,-12.695,33.203,27.832,13.184,20.996
1635968534,-26.855,34.18,23.438,19.043,18.555
1635968534,27.344,33.203,25.391,7.812,9.277
1635968534,70.801,40.039,28.809,0,42.48
1635968534,14.648,39.551,25.391,5.859,15.137
1635968534,-26.367,27.344,27.344,10.742,33.691
1635968534,-3.906,24.414,29.297,9.766,86.426
1635968534,61.035,28.32,26.367,1.953,66.406
1635968534,38.086,34.18,25.391,7.812,28.32
1635968534,-12.207,40.527,28.809,21.973,77.637
1635968534,0,36.621,27.832,24.902,55.176
1635968534,50.293,33.691,25.391,12.695,-8.301
1635968534,51.27,33.691,21.973,6.836,31.738
1635968534,-13.672,31.738,17.09,17.09,76.66
1635968534,-21.484,28.32,25.391,15.137,51.27
1635968534,35.645,29.785,27.344,7.812,9.277
1635968534,67.871,40.039,21.484,7.324,24.902
1635968534,6.348,43.457,24.414,14.648,10.742
1635968534,-16.113,41.504,25.879,15.625,1.953
1635968534,34.668,41.016,27.344,9.277,17.578
1635968534,81.543,39.551,23.438,5.371,25.391
1635968534,26.855,35.645,15.137,14.16,46.875
1635968534,-17.09,37.598,12.695,24.414,53.223
1635968534,3.906,41.016,18.555,14.16,23.438
1635968534,72.266,39.551,23.926,4.883,-31.738
1635968534,47.363,37.109,26.367,14.648,36.621
1635968534,-33.203,29.297,30.273,21.484,83.496
1635968534,-25.879,25.879,31.738,19.043,-24.414
1635968534,38.086,28.809,32.227,10.254,10.742
1635968534,49.316,33.691,32.715,4.883,74.219
1635968534,-19.043,35.645,35.645,16.602,-11.719
1635968534,-27.832,31.25,30.762,18.555,-2.93
1635968534,29.297,32.715,28.32,9.277,31.738
1635968534,59.082,34.668,34.668,9.277,3.906
1635968534,-4.883,29.297,27.344,14.16,6.836
1635968534,-33.691,28.809,26.855,20.02,44.434
1635968534,13.672,26.855,30.273,21.484,49.805
1635968534,76.66,31.738,25.879,14.648,56.641
1635968534,33.203,38.086,22.949,17.578,35.645
1635968534,-26.367,38.574,27.344,23.926,42.969
1635968534,-0.488,41.504,31.25,18.555,27.832
1635968534,64.453,40.527,26.855,9.277,0.488
1635968534,45.898,30.762,21.973,11.23,5.859
1635968534,-25.391,22.949,22.949,19.531,7.324
1635968534,-18.066,27.344,22.949,23.438,34.18
1635968534,46.387,32.227,31.738,16.602,32.715
1635968534,57.129,33.203,32.715,14.648,6.348
1635968534,-7.324,37.109,28.32,21.484,31.25
1635968534,-21.484,31.25,31.25,13.672,1.953
1635968534,25.879,26.855,27.832,4.883,-6.836
1635968534,75.195,36.133,27.344,-2.441,34.18
1635968534,20.508,34.668,28.809,5.371,17.578
1635968534,-21.973,39.551,31.738,12.207,62.988
1635968534,19.043,46.875,32.715,12.207,61.523
1635968534,81.543,36.621,27.344,7.324,36.621
1635968534,46.387,31.738,29.785,9.277,58.594
1635968534,-15.625,26.855,34.668,18.555,46.875
1635968534,-3.418,27.344,32.715,16.602,21.484
1635968534,62.988,27.832,31.738,9.766,28.809
1635968534,57.129,29.297,33.691,15.625,47.852
1635968534,-15.137,35.645,35.645,25.391,28.809
1635968534,-19.043,31.25,38.574,26.367,23.926
1635968534,44.434,27.344,27.832,17.578,36.133
1635968534,65.918,30.273,20.508,10.742,29.297
1635968534,-5.859,35.156,30.273,21.973,28.809
1635968534,-27.832,37.109,29.785,25.879,65.43
1635968534,21.484,34.668,27.344,17.09,40.039
1635968534,76.66,33.691,31.25,7.812,28.32
1635968534,28.809,39.551,33.203,18.555,40.039
1635968534,-14.648,41.016,34.18,29.297,30.273
1635968534,14.16,30.273,26.855,26.367,52.734
1635968534,76.172,28.809,19.531,13.672,35.156
1635968534,52.246,34.668,20.508,10.742,-12.207
1635968534,-12.695,32.227,19.043,20.996,13.184
1635968534,1.465,37.598,20.996,20.996,19.043
1635968534,63.477,39.062,26.855,12.207,39.062
1635968534,59.082,35.156,23.926,4.883,48.34
1635968534,-6.348,33.691,25.391,14.16,34.668
1635968534,-18.066,27.344,29.297,17.09,40.039
1635968534,28.32,25.391,26.855,5.859,19.531
1635968534,59.082,28.809,27.832,8.301,-13.184
1635968534,-9.766,30.762,27.344,16.602,21.484
1635968534,-34.668,35.156,25.391,21.484,40.039
1635968534,17.578,30.273,24.902,20.02,1.953
1635968534,73.73,20.02,31.738,8.789,46.875
1635968534,20.02,23.926,34.18,17.09,39.062
1635968534,-30.273,29.297,32.715,23.438,-27.344
1635968534,6.348,31.738,32.227,22.461,-18.066
1635968534,73.73,34.18,25.879,16.602,-15.137
1635968534,48.828,29.785,26.367,14.648,-4.883
1635968534,-23.438,27.832,26.367,21.973,-18.066
1635968534,-10.742,25.879,22.949,23.438,-10.742
1635968534,46.875,24.414,25.391,11.719,57.129
1635968534,42.48,26.855,19.531,2.441,43.457
1635968534,-24.902,25.879,10.742,14.648,1.465
1635968534,-27.832,23.926,16.113,20.508,-21.484
1635968534,28.32,27.344,23.438,9.277,3.418
1635968534,74.219,27.832,21.973,2.93,41.992
1635968534,15.625,23.926,23.926,17.578,34.668
1635968534,-28.32,25.391,30.273,23.438,35.156
1635968534,15.137,31.25,30.762,16.602,18.066
1635968534,82.52,34.668,29.785,8.301,-32.227
1635968534,42.969,31.25,27.344,10.742,6.836
1635968534,-10.254,26.855,24.902,19.043,61.523
1635968534,8.789,30.273,27.344,19.531,54.688
1635968534,68.848,34.668,27.832,10.254,25.879
1635968534,50.781,30.273,24.414,6.836,3.418
1635968534,-22.949,27.344,25.391,13.184,26.855
1635968534,-16.113,31.25,20.02,14.16,29.297
1635968534,48.34,35.645,17.578,4.883,26.855
1635968534,69.336,31.738,17.578,3.906,24.414
1635968534,2.441,30.273,21.484,19.531,-22.461
1635968534,-15.137,35.156,27.344,22.461,13.672
1635968534,33.691,35.156,26.855,12.695,39.551
1635968534,74.219,31.738,23.438,0.977,32.227
1635968534,18.066,33.691,24.902,7.812,23.438
1635968534,-21.484,40.527,25.879,19.043,28.809
1635968534,15.625,42.48,23.926,16.602,93.75
1635968534,76.172,33.203,20.996,4.883,83.008
1635968534,42.48,34.668,24.902,8.301,67.871
1635968534,-19.531,40.527,25.879,17.578,61.523
1635968534,-2.93,35.645,25.391,16.602,54.199
1635968534,65.43,32.227,21.973,11.23,37.109
1635968534,57.617,33.691,17.09,8.789,34.18
1635968534,-9.277,31.738,17.09,16.602,26.367
1635968534,-3.418,29.785,13.184,18.555,4.883
1635968534,50.781,33.691,18.066,9.277,3.906
1635968534,66.895,32.715,26.367,8.301,36.133
1635968534,-8.301,27.344,23.438,19.043,56.641
1635968534,-34.668,27.344,18.555,17.578,36.133
1635968534,16.602,31.25,21.484,5.859,61.035
1635968534,77.148,34.668,22.949,-1.953,60.547
1635968534,30.762,29.785,24.902,6.836,60.059
1635968534,-20.996,23.926,24.902,14.648,24.902
1635968534,-0.488,26.855,20.996,14.16,10.254
1635968534,64.941,21.973,22.461,4.883,26.367
1635968534,39.062,22.461,24.414,4.883,13.184
1635968534,-25.879,37.109,22.461,13.672,17.09
1635968534,-15.137,38.086,25.391,12.695,6.836
1635968534,49.805,33.691,27.832,4.395,28.809
1635968534,59.082,28.809,30.273,8.789,36.621
1635968534,-11.23,30.762,25.391,21.973,30.273
1635968534,-17.578,38.574,20.02,26.855,43.945
1635968534,38.086,37.109,25.391,15.625,53.223
1635968534,70.801,33.203,26.367,0,47.852
1635968534,11.719,34.18,32.715,12.695,27.344
1635968534,-18.555,33.691,32.715,21.484,17.09
1635968534,20.508,32.227,24.902,11.23,20.02
1635968534,76.172,36.133,19.531,1.465,24.902
1635968534,27.344,33.203,20.508,8.301,-4.395
1635968534,-29.297,31.738,26.367,20.996,-23.926
1635968534,-1.953,29.785,27.344,17.578,50.293
1635968534,64.941,31.25,22.949,6.348,49.316
1635968534,46.875,32.715,11.23,6.836,9.766
1635968534,-19.531,28.809,13.672,14.648,32.715
1635968534,-20.996,29.297,25.879,8.301,28.809
1635968534,33.691,28.809,27.832,-1.465,5.371
1635968534,52.246,31.738,28.809,0.977,-3.418
1635968534,-17.09,30.273,35.156,12.207,48.34
1635968534,-30.273,32.227,39.551,19.043,81.543
1635968534,22.949,34.668,36.133,12.695,55.176
1635968534,63.965,26.855,28.32,6.348,14.648
1635968534,5.371,24.414,28.809,16.602,6.348
1635968534,-33.691,22.949,26.855,18.555,14.648
1635968534,7.812,24.414,25.391,18.555,38.574
1635968534,73.242,31.25,32.715,12.207,44.922
1635968534,36.621,34.668,34.18,12.207,57.617
1635968534,-22.949,31.25,33.691,18.066,43.457
1635968534,-7.324,30.762,29.297,15.137,5.371
1635968534,55.664,29.785,27.832,7.812,45.41
1635968534,51.27,28.809,26.367,6.348,50.293
1635968534,-14.16,33.203,27.832,17.578,21.973
1635968534,-13.184,33.691,32.227,15.625,42.969
1635968534,49.805,35.645,32.227,11.23,59.57
1635968534,73.242,37.598,33.203,21.973,14.648
1635968534,1.465,31.25,23.926,26.855,33.203
1635968534,-22.461,33.203,23.438,24.902,65.918
1635968534,27.344,36.621,29.785,20.996,47.852
1635968534,71.289,31.25,24.414,6.348,37.109
1635968534,13.184,24.902,27.832,12.695,17.09
1635968534,-34.18,24.414,30.273,20.02,-3.906
1635968534,-2.93,29.785,28.32,14.648,41.504
1635968534,67.871,31.738,28.32,9.766,52.246
1635968534,38.574,31.25,30.273,11.23,11.719
1635968535,-21.973,24.902,32.227,24.414,-3.418
1635968535,0,24.902,28.809,27.832,17.09
1635968535,57.617,32.715,27.344,8.789,15.625
1635968535,52.734,33.203,25.879,-0.977,-1.465
1635968535,-13.672,37.109,25.391,12.695,-2.93
1635968535,-16.602,39.551,35.156,17.578,-14.16
1635968535,38.086,29.785,36.133,8.301,-42.969
1635968535,62.012,23.926,30.273,2.441,-8.789
1635968535,1.465,26.855,29.785,14.648,19.531
1635968535,-23.438,24.902,29.297,20.508,65.918
1635968535,18.555,26.367,29.297,14.648,58.105
1635968535,69.336,31.25,29.297,3.906,34.18
1635968535,19.531,34.18,30.762,4.883,56.641
1635968535,-25.391,33.691,34.18,13.672,27.832
1635968535,-1.953,28.809,28.809,14.648,31.25
1635968535,59.57,31.738,21.484,8.789,7.324
1635968535,40.527,40.039,24.902,12.695,14.648
1635968535,-26.855,39.551,30.273,21.484,51.27
1635968535,-18.555,34.18,31.738,21.484,57.617
1635968535,50.293,34.668,29.785,13.672,51.758
1635968535,62.988,40.039,32.715,15.625,17.09
1635968535,-4.395,48.34,44.922,34.668,15.625
1635968535,-25.879,41.504,33.691,31.25,38.574
1635968535,12.207,31.738,25.879,9.277,20.508
1635968535,53.223,36.133,33.203,-3.906,41.504
1635968535,-8.301,34.668,28.32,2.93,43.457
1635968535,-50.781,39.062,33.691,7.324,-33.203
1635968535,-12.695,55.664,43.945,-6.348,8.301
1635968535,55.176,55.176,43.457,-10.742,17.578
1635968535,9.766,60.059,44.434,-9.277,26.367
1635968535,-62.012,66.406,51.758,-18.066,26.855
1635968535,-47.363,59.082,47.363,-29.785,4.883
1635968535,14.648,63.965,48.828,-41.016,69.824
1635968535,-10.742,78.613,62.5,-49.316,83.008
1635968535,-103.027,90.82,67.383,-63.965,60.547
1635968535,-127.93,91.309,58.594,-92.773,59.082
1635968535,-75.684,92.285,61.035,-111.816,48.34
1635968535,-60.059,102.051,64.453,-120.117,51.758
1635968535,-160.645,101.074,59.082,-140.625,52.246
1635968535,-208.496,107.91,62.5,-167.48,31.738
1635968535,-182.617,123.047,69.824,-196.289,21.484
1635968535,-170.41,125.488,78.125,-227.051,50.781
1635968535,-251.465,119.141,83.496,-243.164,31.25
1635968535,-303.223,119.141,93.75,-254.883,28.32
1635968535,-268.066,120.605,105.957,-252.93,13.672
1635968535,-201.66,113.77,113.77,-255.371,-25.879
1635968535,-226.074,106.934,116.211,-244.629,14.648
1635968535,-268.555,100.098,121.582,-209.961,-12.695
1635968535,-228.516,95.215,121.094,-187.988,-31.25
1635968535,-137.695,90.332,110.84,-178.223,-1.465
1635968535,-117.188,75.684,104.004,-161.621,4.883
1635968535,-158.691,66.406,94.727,-126.953,-35.645
1635968535,-141.602,65.918,83.984,-100.098,-24.414
1635968535,-66.895,60.059,82.031,-87.402,9.277
1635968535,-4.883,49.805,72.266,-63.477,16.113
1635968535,-47.852,42.48,60.059,-32.227,66.406
1635968535,-56.152,42.48,57.129,-7.812,-3.418
1635968535,14.648,31.25,49.805,5.859,-16.113
1635968535,85.938,22.949,42.48,9.277,73.242
1635968535,47.852,19.531,37.598,34.668,52.246
1635968535,5.859,17.578,27.344,57.617,-8.789
1635968535,49.805,19.531,19.043,63.477,-5.859
1635968535,129.395,8.301,14.16,65.43,20.508
1635968535,104.004,0.488,12.695,80.566,3.906
1635968535,40.527,1.465,5.371,102.539,18.066
1635968535,66.895,4.883,-8.301,100.586,17.09
1635968535,141.113,4.883,-8.301,97.656,15.137
1635968535,150.391,2.441,-5.859,105.957,55.664
1635968535,71.777,-0.488,-11.23,118.652,42.48
1635968535,62.5,-2.441,-14.648,123.535,-0.977
1635968535,137.695,-1.465,-12.207,116.699,22.949
1635968535,173.34,-3.906,-11.719,113.281,46.387
1635968535,110.352,-2.441,-9.277,124.512,53.223
1635968535,82.031,-9.277,-5.859,129.395,34.18
1635968535,127.93,-7.812,-8.301,122.559,22.949
1635968535,190.43,5.371,-14.16,114.258,32.715
1635968535,149.902,0.488,-20.996,121.094,44.922
1635968535,100.586,-9.277,-19.043,131.348,58.105
1635968535,114.258,-2.93,-9.766,126.465,94.238
1635968535,172.852,3.418,-8.789,114.258,98.145
1635968535,160.156,-0.977,-8.789,114.258,26.855
1635968535,91.797,-2.93,-8.301,124.023,-39.062
1635968535,90.332,-0.488,-5.371,118.164,-15.625
1635968535,151.855,0,0.977,108.887,26.855
1635968535,165.039,-2.93,2.93,105.469,9.277
1635968535,90.332,-0.977,-4.395,111.328,5.859
1635968535,69.336,-0.977,-3.906,110.84,4.883
1635968535,121.094,0,-0.977,99.609,9.766
1635968535,164.062,6.836,-3.418,92.773,41.992
1635968535,101.562,6.836,5.859,95.215,54.688
1635968535,65.43,8.789,4.883,102.051,28.32
1635968535,108.398,7.812,1.465,99.609,-4.395
1635968535,162.109,5.859,2.93,87.402,17.578
1635968535,104.98,5.859,0.488,87.402,57.129
1635968535,39.551,7.812,5.371,86.426,7.812
1635968535,59.082,8.301,9.766,80.566,22.461
1635968535,121.094,14.16,7.812,72.266,33.203
1635968535,116.699,19.043,6.348,67.383,34.668
1635968535,38.086,14.648,9.766,68.848,35.645
1635968535,26.367,10.254,16.113,65.918,9.277
1635968535,91.309,13.184,10.742,58.594,15.625
1635968535,114.746,19.043,4.395,52.246,-1.953
1635968535,41.504,18.066,11.23,56.641,-3.906
1635968535,21.973,22.949,16.602,60.547,26.855
1635968535,84.473,26.855,20.02,60.059,20.996
1635968535,134.766,22.949,24.414,54.199,56.152
1635968535,66.895,18.066,18.555,57.129,68.359
1635968535,21.484,17.09,19.531,65.43,32.227
1635968535,44.922,24.902,24.902,55.176,29.785
1635968535,104.492,24.902,17.578,40.527,19.043
1635968535,73.242,22.461,16.602,46.875,23.926
1635968535,5.371,25.879,16.602,53.711,36.621
1635968535,20.02,29.785,16.602,47.363,51.758
1635968535,84.961,28.809,18.066,40.039,61.523
1635968535,94.238,25.879,18.066,40.039,53.223
1635968535,22.461,18.555,22.949,46.387,-32.227
1635968535,9.766,18.555,17.578,45.898,-20.508
1635968535,64.453,18.555,22.949,33.203,49.805
1635968535,99.609,20.02,29.297,25.391,28.809
1635968535,26.855,23.926,25.391,37.109,41.016
1635968535,-11.719,22.461,23.926,34.668,51.27
1635968535,36.133,24.414,21.484,29.785,37.109
1635968535,86.426,26.367,19.531,23.926,43.457
1635968535,33.203,25.391,20.02,19.531,46.387
1635968535,-19.043,15.137,22.949,25.391,23.438
1635968535,9.277,13.672,22.461,25.879,20.996
1635968535,75.684,20.508,18.555,20.508,73.242
1635968535,61.035,22.461,22.461,22.949,89.844
1635968535,-5.371,23.438,25.391,26.855,56.152
1635968535,0.977,20.02,28.809,27.832,21.484
1635968535,64.941,14.648,30.273,20.996,11.719
1635968535,66.895,20.996,25.391,18.555,5.371
1635968535,-14.16,26.367,25.391,25.879,-3.418
1635968535,-29.785,23.438,32.227,22.949,32.715
1635968535,32.715,20.508,28.809,15.137,60.059
1635968535,73.242,22.949,20.02,6.836,26.855
1635968535,4.883,22.949,27.832,16.602,-0.488
1635968535,-26.367,19.531,31.25,22.461,-8.789
1635968535,24.414,24.414,25.391,19.531,12.695
1635968535,88.379,31.25,21.973,16.602,46.387
1635968535,43.945,31.25,28.809,25.391,37.109
1635968535,-11.23,26.855,33.203,34.18,47.852
1635968535,7.324,22.949,35.645,31.25,33.691
1635968535,64.453,24.414,34.18,18.066,28.809
1635968535,51.27,17.09,24.902,12.207,56.641
1635968535,-20.508,18.555,21.484,24.414,46.387
1635968535,-26.367,31.738,25.391,19.043,7.324
1635968535,37.109,30.273,23.438,2.93,1.465
1635968535,62.5,24.414,23.438,0.977,47.852
1635968535,-12.207,24.414,27.832,10.742,20.02
1635968535,-30.762,29.785,29.297,18.066,10.254
1635968535,27.344,34.668,25.391,17.578,36.621
1635968535,83.984,29.785,23.438,7.324,0.977
1635968535,23.926,23.438,26.367,13.184,-18.066
1635968535,-17.09,25.879,29.785,27.832,3.906
1635968535,12.207,26.855,26.367,21.973,44.922
1635968535,65.918,20.996,24.902,8.789,46.875
1635968535,31.25,24.902,28.809,14.648,38.574
1635968535,-31.25,33.691,28.32,27.832,53.223
1635968535,-4.395,32.227,28.32,28.809,49.316
1635968535,67.383,29.297,26.367,19.531,47.363
1635968535,58.105,29.785,29.785,18.555,65.43
1635968535,-16.113,34.18,37.598,30.762,69.824
1635968535,-13.672,34.668,36.133,31.25,18.555
1635968535,51.27,33.691,30.762,20.508,-3.418
1635968535,71.289,33.691,28.809,16.602,7.324
1635968535,-3.906,33.203,25.879,20.996,15.625
1635968535,-21.484,33.691,25.391,21.973,27.344
1635968535,26.367,30.762,30.273,13.672,31.25
1635968535,73.73,26.367,30.762,4.883,18.555
1635968535,19.531,29.785,26.855,8.301,0.488
1635968535,-30.762,29.785,24.414,11.23,-8.789
1635968535,5.371,33.203,22.949,10.742,-1.465
1635968535,69.336,38.574,27.832,4.883,25.391
1635968535,43.945,38.086,34.668,11.23,26.367
1635968535,-23.438,36.133,29.785,22.461,7.324
1635968535,-19.043,32.715,26.855,18.555,22.461
1635968535,50.781,27.832,24.902,8.789,49.805
1635968535,59.57,29.297,22.461,9.766,58.594
1635968535,-14.648,33.203,29.297,18.555,18.555
1635968535,-24.902,35.645,27.344,16.602,13.184
1635968535,36.133,30.273,24.902,9.277,15.625
1635968535,66.895,31.738,31.25,3.418,-7.812
1635968535,1.953,38.574,32.227,11.23,-2.93
1635968535,-30.273,34.18,31.738,12.695,44.434
1635968535,3.906,26.855,27.832,4.395,50.293
1635968535,60.547,23.926,27.832,0,21.484
1635968535,14.648,27.344,25.879,4.883,37.598
1635968535,-32.715,27.344,26.367,13.672,34.668
1635968535,-0.488,32.227,32.227,10.254,-8.301
1635968535,67.383,40.039,29.297,-3.906,-12.695
1635968535,47.852,39.062,25.391,-0.977,32.715
1635968535,-26.367,31.738,24.414,10.254,27.344
1635968535,-19.043,29.297,22.461,10.742,-13.184
1635968535,38.574,35.645,22.461,2.441,14.648
1635968535,55.176,33.203,24.414,-1.953,48.828
1635968535,-13.184,30.762,22.949,7.324,86.914
1635968535,-30.273,36.621,22.461,12.207,73.73
1635968535,26.855,32.715,24.902,9.766,39.551
1635968535,68.359,27.344,20.508,1.465,66.895
1635968535,5.859,26.855,21.973,9.766,26.855
1635968535,-38.574,28.32,28.32,13.672,19.531
1635968535,3.418,30.273,29.297,9.766,62.012
1635968535,70.312,28.809,31.25,10.254,29.785
1635968535,25.879,29.785,27.344,6.348,23.926
1635968535,-30.762,29.785,25.391,10.742,29.785
1635968535,-10.742,32.227,29.785,15.625,5.371
1635968535,59.082,32.227,28.809,5.859,95.215
1635968535,58.105,30.273,30.273,9.277,115.234
1635968535,-23.926,27.344,23.438,19.043,18.066
1635968535,-30.273,29.785,19.043,11.23,16.113
1635968535,36.621,38.086,31.738,4.883,42.969
1635968535,67.383,45.41,36.621,7.324,73.73
1635968535,0.488,44.922,32.715,19.043,52.734
1635968535,-26.855,37.598,36.133,21.973,10.254
1635968535,22.949,32.227,37.109,17.09,25.879
1635968535,79.59,32.227,28.809,13.672,-5.371
1635968535,24.414,32.715,25.879,18.066,-0.488
1635968535,-21.973,34.668,25.879,23.438,22.949
1635968535,20.02,38.574,27.832,22.461,43.945
1635968535,88.379,36.621,29.297,11.719,43.457
1635968535,58.105,38.086,27.344,17.09,36.621
1635968535,-9.277,41.992,34.18,30.273,62.012
1635968535,-2.441,39.551,35.156,24.414,9.766
1635968535,68.848,38.574,34.18,16.113,2.441
1635968535,71.289,32.227,33.691,14.16,5.859
1635968535,-8.301,32.227,31.25,21.973,1.953
1635968535,-13.672,36.133,32.227,30.273,33.203
1635968535,46.875,33.691,30.762,22.461,21.973
1635968535,85.449,38.574,32.715,12.695,31.25
1635968535,14.16,41.504,33.691,19.043,54.688
1635968535,-26.367,36.621,27.832,14.648,66.406
1635968535,24.902,30.762,23.926,10.254,48.34
1635968535,88.867,29.297,29.785,11.23,28.32
1635968535,33.203,34.18,39.551,11.23,28.809
1635968535,-21.484,37.109,35.645,18.066,21.484
1635968535,5.371,37.598,31.738,20.508,20.02
1635968535,72.754,39.062,34.18,12.695,6.836
1635968535,56.641,36.621,34.668,13.184,29.785
1635968535,-14.648,36.133,33.203,24.414,39.062
1635968535,-12.695,30.762,29.785,24.414,31.25
1635968535,60.059,29.785,30.273,14.648,56.641
1635968535,68.359,34.18,24.902,10.742,-1.953
1635968535,-13.184,34.668,19.043,23.926,-7.324
1635968535,-19.043,39.062,28.32,33.203,2.441
1635968535,36.621,39.062,34.18,28.32,-19.043
1635968535,72.754,32.715,31.25,16.113,1.465
1635968535,7.324,26.855,32.227,14.16,25.391
1635968535,-26.855,30.273,34.668,18.555,23.438
1635968535,16.113,39.062,35.645,20.02,21.484
1635968535,73.242,37.109,34.18,11.23,-5.371
1635968535,30.762,31.738,28.32,11.23,-13.672
1635968535,-21.973,32.715,28.32,18.555,11.719
1635968535,-3.906,30.273,27.344,14.648,27.344
1635968535,61.523,33.203,16.113,7.324,9.766
1635968535,52.734,33.691,23.926,13.672,23.438
1635968535,-18.555,21.484,32.227,23.926,48.828
1635968535,-19.043,26.367,27.832,20.508,12.695
1635968535,46.387,30.762,31.25,18.555,13.672
1635968535,66.406,28.32,31.738,16.113,-10.742
1635968535,-10.254,32.227,32.715,25.391,-6.836
1635968535,-27.832,32.715,35.645,26.855,31.738
1635968536,22.949,30.273,33.691,17.578,2.441
1635968536,71.289,30.273,33.691,18.066,22.949
1635968536,18.066,30.762,33.203,22.461,43.945
1635968536,-21.484,32.715,31.738,29.785,5.371
1635968536,18.066,38.574,26.855,29.297,49.316
1635968536,82.52,39.551,24.902,19.531,49.316
1635968536,46.875,38.574,34.668,26.367,-28.809
1635968536,-20.02,38.574,36.621,32.715,-37.109
1635968536,-0.488,33.691,29.785,28.809,19.043
1635968536,62.5,34.18,28.32,16.113,20.996
1635968536,57.129,34.668,30.273,12.207,57.129
1635968536,-6.348,26.855,36.133,25.391,72.754
1635968536,-10.254,23.926,38.086,27.344,18.555
1635968536,52.246,32.715,34.18,24.414,44.922
1635968536,82.031,31.25,34.668,19.531,35.156
1635968536,8.301,29.297,36.621,22.949,28.32
1635968536,-20.996,35.645,29.785,25.879,29.785
1635968536,24.414,37.109,26.855,19.043,23.438
1635968536,72.754,40.039,28.809,9.277,42.969
1635968536,17.578,36.621,26.855,12.695,31.25
1635968536,-29.297,36.133,27.344,19.043,32.227
1635968536,-0.488,40.039,27.344,19.043,30.762
1635968536,62.988,34.18,30.762,8.789,50.781
1635968536,43.457,31.25,36.133,7.812,30.273
1635968536,-24.902,28.32,30.273,13.672,-20.508
1635968536,-15.625,27.344,27.832,15.137,-4.883
1635968536,54.688,37.598,33.203,9.277,23.438
1635968536,66.406,35.156,29.297,7.324,18.066
1635968536,-10.742,32.227,23.438,19.043,33.691
1635968536,-18.555,33.203,24.414,24.414,59.082
1635968536,41.504,33.203,25.879,18.066,57.129
1635968536,78.125,30.762,28.809,6.836,5.371
1635968536,9.277,25.879,29.297,13.184,0
1635968536,-33.203,30.273,26.367,18.066,23.926
1635968536,18.066,32.227,31.738,11.23,23.926
1635968536,78.613,34.668,33.691,0,27.344
1635968536,25.879,32.715,28.32,1.465,16.113
1635968536,-31.738,29.785,31.738,15.137,10.742
1635968536,-4.395,33.203,39.551,18.066,-27.344
1635968536,67.383,31.738,38.086,4.395,-21.973
1635968536,51.758,30.762,30.273,9.277,9.766
1635968536,-21.973,30.273,30.273,24.902,15.625
1635968536,-16.113,29.297,30.273,20.02,17.09
1635968536,51.758,32.227,28.32,12.695,15.137
1635968536,71.777,35.156,31.738,11.23,18.066
1635968536,-0.977,30.762,33.691,19.043,1.465
1635968536,-15.625,28.32,28.809,22.461,1.953
1635968536,36.133,34.668,25.879,13.672,-8.789
1635968536,73.73,32.227,29.297,2.93,-4.395
1635968536,11.719,25.879,31.738,11.23,44.434
1635968536,-26.855,33.691,31.738,19.531,37.109
1635968536,15.625,36.133,33.691,16.113,-7.324
1635968536,77.637,28.809,29.785,4.395,9.277
1635968536,41.016,18.555,30.273,6.348,38.574
1635968536,-22.949,14.648,32.227,15.137,71.289
1635968536,-3.418,24.902,27.344,16.113,52.246
1635968536,76.66,28.809,27.344,14.16,16.602
1635968536,65.918,25.391,30.762,12.207,26.367
1635968536,-12.207,32.227,23.926,19.531,39.551
1635968536,-12.207,36.133,21.973,21.484,53.223
1635968536,46.875,29.785,33.691,10.254,32.715
1635968536,70.801,26.367,37.598,5.371,-9.277
1635968536,-3.418,23.926,30.273,13.672,-3.418
1635968536,-26.367,24.414,28.809,15.625,7.812
1635968536,24.414,26.367,29.785,8.301,12.695
1635968536,81.055,25.879,28.809,3.906,15.625
1635968536,28.809,29.297,29.785,17.578,40.527
1635968536,-25.391,35.645,35.156,25.879,68.359
1635968536,6.348,37.109,40.039,18.066,47.852
1635968536,79.102,31.738,27.344,14.16,51.758
1635968536,51.27,23.926,21.973,24.902,36.621
1635968536,-25.391,29.785,31.25,27.344,11.719
1635968536,-20.02,26.855,34.18,13.672,9.766
1635968536,52.246,23.926,34.18,0.977,41.504
1635968536,53.223,34.668,32.227,-2.93,58.105
1635968536,-21.484,38.574,35.156,10.254,20.996
1635968536,-23.926,36.621,34.18,8.789,-13.672
1635968536,34.668,33.203,27.344,-3.418,-9.766
1635968536,66.895,36.133,22.949,0,13.672
1635968536,-3.418,35.156,17.09,8.301,28.809
1635968536,-33.203,31.738,20.508,12.695,64.453
1635968536,12.207,38.574,28.32,8.789,44.434
1635968536,70.801,40.527,26.855,-1.953,21.973
1635968536,24.414,36.621,29.785,2.93,23.926
1635968536,-30.762,33.691,33.691,9.766,20.996
1635968536,-4.883,30.762,27.344,7.812,23.926
1635968536,68.848,32.715,23.438,0.977,22.949
1635968536,51.27,37.109,25.879,2.93,68.848
1635968536,-23.926,36.133,30.762,16.113,92.773
1635968536,-16.602,38.574,32.227,22.461,69.824
1635968536,47.852,35.645,29.297,19.531,31.738
1635968536,54.688,30.762,20.508,14.648,11.719
1635968536,-17.578,34.18,16.113,10.742,13.184
1635968536,-26.855,32.227,21.973,4.883,15.625
1635968536,37.598,32.715,25.879,5.371,34.18
1635968536,83.984,37.109,25.879,8.301,7.812
1635968536,16.113,37.109,26.855,11.23,-19.531
1635968536,-18.555,38.574,26.855,14.648,-0.488
1635968536,18.555,41.016,30.762,17.578,19.531
1635968536,72.266,33.203,32.227,6.348,35.645
1635968536,32.227,27.344,25.391,13.184,19.043
1635968536,-26.367,31.738,18.066,22.461,0.488
1635968536,-3.418,38.574,21.973,16.602,21.973
1635968536,61.523,34.18,27.344,14.16,69.336
1635968536,49.316,30.762,23.926,9.766,90.332
1635968536,-21.484,35.156,26.367,14.648,21.973
1635968536,-22.461,29.297,25.391,13.184,14.648
1635968536,42.48,27.344,25.879,3.906,24.902
1635968536,60.547,28.809,30.762,4.883,41.992
1635968536,-15.625,29.785,25.879,16.602,48.34
1635968536,-33.203,31.738,23.438,16.113,17.578
1635968536,25.879,27.344,26.855,7.812,23.438
1635968536,77.637,27.344,28.32,3.418,15.137
1635968536,22.461,30.762,28.809,11.719,-8.301
1635968536,-22.949,30.273,28.809,19.531,2.93
1635968536,2.93,26.855,24.414,10.742,13.184
1635968536,63.477,23.926,18.555,-0.977,0.488
1635968536,31.738,27.344,25.391,3.418,11.719
1635968536,-21.973,30.762,29.785,15.625,29.785
1635968536,-0.488,23.438,25.879,18.555,15.625
1635968536,61.523,23.438,29.785,7.812,-4.883
1635968536,59.082,32.227,34.668,7.812,-10.742
1635968536,-9.766,30.273,30.273,17.09,-62.012
1635968536,-18.555,25.879,26.367,11.719,-20.508
1635968536,33.691,27.344,23.438,0.977,34.18
1635968536,65.918,29.785,18.555,-3.906,4.395
1635968536,1.465,27.832,18.555,9.766,27.832
1635968536,-25.391,22.949,17.578,10.742,43.457
1635968536,19.043,20.508,18.555,1.465,39.062
1635968536,74.219,22.461,22.949,-1.465,51.27
1635968536,29.785,25.391,26.367,4.395,34.668
1635968536,-29.785,28.32,28.809,10.742,32.227
1635968536,-2.93,26.855,25.879,11.23,56.152
1635968536,71.289,26.367,25.391,6.348,72.754
1635968536,47.363,29.297,26.855,8.301,36.621
1635968536,-19.043,24.414,27.832,17.578,4.395
1635968536,-10.254,29.297,22.949,17.578,8.789
1635968536,54.199,36.621,21.973,9.277,13.184
1635968536,63.477,35.645,21.484,7.812,18.555
1635968536,-4.883,35.645,15.137,19.043,7.812
1635968536,-14.648,27.344,24.902,20.996,-1.465
1635968536,47.852,27.344,30.762,11.719,12.207
1635968536,83.008,35.156,24.414,7.324,3.906
1635968536,8.789,33.691,27.344,18.066,20.508
1635968536,-30.762,34.18,30.762,18.555,31.738
1635968536,11.23,34.18,27.344,6.836,67.383
1635968536,72.266,37.109,28.32,3.906,53.223
1635968536,26.367,35.156,28.809,14.16,-0.977
1635968536,-25.391,31.25,30.762,23.438,5.859
1635968536,0.977,29.785,35.645,25.391,37.598
1635968536,62.5,29.297,36.133,16.602,47.363
1635968536,45.898,34.18,33.203,18.066,-14.16
1635968536,-25.391,30.762,30.273,26.855,16.602
1635968536,-20.508,27.344,30.762,23.926,51.27
1635968536,47.852,31.25,29.785,13.672,61.035
1635968536,61.523,34.668,25.391,14.16,102.539
1635968536,-1.953,33.691,25.391,28.32,16.602
1635968536,-29.785,30.762,29.297,30.762,-20.996
1635968536,13.672,32.227,31.738,17.09,9.766
1635968536,68.848,36.133,26.855,6.348,0.488
1635968536,1.953,33.203,28.32,15.625,-2.441
1635968536,-41.992,24.902,27.832,20.02,13.184
1635968536,0.977,22.461,27.344,16.113,2.93
1635968536,68.359,25.391,31.25,8.301,23.926
1635968536,29.785,28.32,32.227,12.695,24.902
1635968536,-37.109,28.32,35.156,22.949,13.184
1635968536,-18.066,25.391,32.227,18.555,55.664
1635968536,51.758,22.949,34.18,6.348,85.938
1635968536,47.852,22.461,37.109,8.301,77.148
1635968536,-27.344,20.996,36.133,20.996,23.926
1635968536,-22.949,20.02,36.621,25.391,16.602
1635968536,49.316,25.391,35.645,23.438,14.16
1635968536,67.383,31.738,33.691,21.484,-0.977
1635968536,-1.465,32.227,32.227,26.367,10.254
1635968536,-19.531,32.227,29.785,27.832,9.766
1635968536,25.391,36.621,28.32,20.996,34.18
1635968536,78.125,37.598,27.832,14.648,24.902
1635968536,14.16,34.18,32.715,17.09,23.926
1635968536,-37.109,26.855,38.086,21.973,80.566
1635968536,11.23,24.902,31.25,25.879,33.691
1635968536,80.078,31.738,24.902,12.695,-0.488
1635968536,43.457,34.18,21.973,14.648,3.906
1635968536,-19.043,33.203,21.484,26.367,7.812
1635968536,-3.418,36.133,20.508,20.02,51.758
1635968536,64.941,32.227,22.949,10.742,30.762
1635968536,68.359,26.367,28.809,12.207,19.043
1635968536,-8.301,29.297,27.344,24.414,35.645
1635968536,-18.066,27.344,25.879,26.855,29.297
1635968536,42.969,22.461,32.227,15.137,-19.531
1635968536,74.707,27.344,34.668,8.789,-2.441
1635968536,3.906,27.344,29.297,19.531,23.438
1635968536,-26.367,20.508,27.344,23.926,-5.371
1635968536,18.555,26.367,26.855,15.625,5.371
1635968536,72.266,29.297,19.531,3.906,71.777
1635968536,24.902,28.809,25.879,9.277,61.523
1635968536,-28.32,28.809,36.621,17.09,-3.906
1635968536,-2.93,23.926,35.156,11.23,5.371
1635968536,60.547,22.461,27.344,3.906,2.93
1635968536,43.945,27.344,23.926,6.348,14.16
1635968536,-16.602,28.32,28.32,17.578,15.625
1635968536,-11.23,22.461,29.785,20.508,-19.043
1635968536,49.805,26.855,30.273,9.277,2.441
1635968536,65.43,30.762,26.855,2.441,20.996
1635968536,-3.418,29.297,26.855,13.184,39.062
1635968536,-19.043,32.715,32.227,16.113,53.711
1635968536,36.133,34.668,31.25,11.23,19.043
1635968536,76.66,35.156,33.203,8.789,42.48
1635968536,9.277,37.598,33.691,17.09,58.105
1635968536,-29.785,33.691,33.203,21.484,38.086
1635968536,4.883,23.926,34.18,11.23,10.254
1635968536,64.941,25.879,29.297,5.859,-8.789
1635968536,27.832,27.832,29.785,9.766,-11.23
1635968536,-30.762,25.879,30.273,18.066,15.137
1635968536,-2.441,31.738,25.391,19.043,24.414
1635968536,65.43,35.645,28.32,6.836,14.16
1635968536,52.246,32.715,30.273,11.23,5.371
1635968536,-18.555,31.738,28.32,20.02,21.484
1635968536,-13.672,35.645,26.855,16.113,36.133
1635968536,55.176,36.133,25.391,11.23,30.762
1635968536,59.082,35.156,27.832,3.418,71.777
1635968536,-12.695,39.551,28.809,10.742,69.336
1635968536,-24.902,36.621,22.949,12.207,14.16
1635968536,20.996,28.32,22.949,-1.465,12.695
1635968536,69.336,30.762,20.508,-5.859,69.824
1635968536,11.719,34.668,22.949,5.859,67.871
1635968536,-25.391,34.668,29.297,10.742,-6.348
1635968536,11.23,35.645,28.809,4.883,6.348
1635968536,69.336,33.691,30.762,-3.906,69.824
1635968536,42.969,32.227,32.715,1.953,26.855
1635968536,-17.09,38.086,30.273,10.254,-42.969
1635968536,-6.348,35.645,26.855,9.277,-21.973
1635968536,63.477,35.645,24.902,4.883,21.484
1635968536,64.453,43.945,27.344,11.719,23.438
1635968536,-13.184,42.969,28.809,20.508,48.828
1635968536,-16.602,35.645,29.785,24.902,50.781
1635968536,45.41,35.156,31.738,20.996,26.367
1635968536,62.988,36.621,31.738,12.207,6.836
1635968536,-10.254,30.762,30.762,22.461,30.762
1635968536,-28.809,36.621,26.367,27.832,54.199
1635968536,20.02,42.969,25.879,23.926,57.129
1635968536,77.148,40.039,29.785,19.043,42.969
1635968536,30.762,38.086,32.715,20.02,5.371
1635968536,-21.973,34.668,33.691,23.926,-23.438
1635968536,8.301,31.25,32.715,28.32,10.254
1635968536,76.172,33.691,25.879,25.391,28.809
1635968536,48.34,30.273,29.785,26.855,42.969
1635968536,-20.02,30.762,36.133,34.18,53.711
1635968536,-5.859,41.016,36.621,35.645,26.855
1635968536,63.477,41.504,34.18,20.02,67.871
1635968536,61.035,37.109,30.762,9.766,67.383
1635968536,-18.066,32.227,36.133,19.043,1.953
1635968536,-23.926,31.25,37.598,20.508,31.25
1635968536,30.762,34.18,32.715,14.16,46.875
1635968536,60.547,32.227,27.832,2.441,35.645
1635968537,-0.488,28.32,27.832,7.324,45.898
1635968537,-22.949,31.738,28.809,16.113,20.996
1635968537,25.879,37.598,35.156,14.16,7.324
1635968537,83.984,36.621,31.738,12.207,35.156
1635968537,35.156,30.762,32.227,19.043,50.781
1635968537,-32.227,27.832,40.039,19.531,81.055
1635968537,-5.371,29.785,32.715,15.137,85.938
1635968537,65.43,31.738,28.32,8.789,45.898
1635968537,45.898,25.391,30.762,11.719,25.879
1635968537,-19.043,26.855,33.691,19.043,58.594
1635968537,-12.695,31.25,34.18,18.555,58.594
1635968537,54.199,23.926,32.227,17.578,45.898
1635968537,66.406,26.367,35.645,14.16,71.777
1635968537,-3.418,30.762,37.598,25.879,85.938
1635968537,-13.672,32.227,35.156,30.273,56.641
1635968537,41.016,33.203,30.762,19.043,11.23
1635968537,90.332,35.645,30.762,18.066,-10.742
1635968537,30.273,35.645,33.203,29.785,-20.02
1635968537,-8.789,37.598,30.273,38.574,-20.02
1635968537,34.18,34.668,29.297,34.668,10.254
1635968537,100.098,30.762,29.297,23.926,1.953
1635968537,58.105,28.809,29.297,24.902,-0.488
1635968537,-3.418,28.809,28.32,31.738,17.09
1635968537,18.555,30.273,29.785,27.344,-25.391
1635968537,75.195,33.203,30.273,10.742,-12.207
1635968537,58.105,35.645,24.414,5.859,25.879
1635968537,-12.695,30.273,29.785,19.043,-24.902
1635968537,-15.625,23.926,34.18,20.508,5.371
1635968537,45.898,21.484,27.344,13.672,43.945
1635968537,74.707,25.391,23.438,6.348,10.254
1635968537,-0.488,25.879,26.367,12.207,11.719
1635968537,-20.508,31.738,32.715,21.484,51.27
1635968537,40.039,34.668,23.438,19.043,40.527
1635968537,93.262,26.367,19.043,12.207,47.363
1635968537,39.062,23.926,25.879,20.508,68.359
1635968537,-11.23,25.879,26.855,29.297,44.434
1635968537,15.625,23.926,21.973,25.391,72.754
1635968537,83.496,26.855,18.555,13.672,39.551
1635968537,52.246,31.25,21.484,11.719,16.602
1635968537,-22.949,28.809,26.367,12.207,25.391
1635968537,-18.555,27.344,32.227,8.789,7.324
1635968537,50.293,29.785,31.25,1.953,20.996
1635968537,56.641,29.785,29.297,0,23.926
1635968537,-18.066,25.391,30.762,10.254,-9.766
1635968537,-26.367,27.832,25.391,17.09,-3.906
1635968537,33.203,34.668,23.438,11.719,4.883
1635968537,69.824,32.227,27.344,4.395,24.902
1635968537,3.418,31.738,26.367,17.578,66.406
1635968537,-27.344,29.785,23.926,28.809,39.062
1635968537,20.996,27.344,30.273,21.484,8.789
1635968537,75.684,25.391,31.738,10.742,35.645
1635968537,31.738,23.438,27.344,16.602,35.156
1635968537,-28.809,25.391,25.879,20.996,3.906
1635968537,-16.602,27.832,25.879,9.766,14.16
1635968537,51.758,27.344,27.344,-4.395,12.207
1635968537,32.227,27.832,26.855,-5.859,-1.953
1635968537,-30.273,34.18,25.879,0.488,27.344
1635968537,-23.926,32.715,20.02,2.93,19.043
1635968537,33.691,27.344,22.461,-6.348,24.902
1635968537,51.27,23.926,26.855,-5.859,26.367
1635968537,-17.578,21.973,27.832,7.812,33.203
1635968537,-32.227,24.414,32.715,12.207,38.086
1635968537,32.715,27.832,30.273,10.254,-26.367
1635968537,67.871,31.25,26.855,3.418,-24.414
1635968537,3.418,29.297,29.785,12.695,-1.953
1635968537,-25.391,28.809,32.715,21.973,-6.836
1635968537,8.789,27.344,33.203,20.02,8.789
1635968537,64.453,25.391,26.367,8.789,-17.578
1635968537,30.273,25.879,19.531,10.254,-33.691
1635968537,-18.066,26.367,19.531,20.508,24.414
1635968537,-9.277,30.762,26.367,18.066,7.324
1635968537,52.246,32.715,29.297,8.789,-19.531
1635968537,51.27,32.715,30.762,7.812,24.902
1635968537,-19.043,32.227,33.691,15.625,67.871
1635968537,-22.949,32.227,30.762,12.207,42.969
1635968537,36.133,33.203,25.879,2.441,1.465
1635968537,55.176,27.344,22.949,-2.441,45.41
1635968537,-7.324,28.809,20.996,4.395,54.688
1635968537,-26.367,31.738,24.902,14.16,51.27
1635968537,22.461,28.32,30.273,12.695,49.805
1635968537,74.219,26.367,26.367,5.371,16.113
1635968537,14.648,26.855,30.762,16.602,2.93
1635968537,-24.414,29.785,33.203,19.043,-2.441
1635968537,16.602,35.156,28.32,13.672,4.883
1635968537,78.613,35.645,29.785,7.324,23.926
1635968537,49.316,37.109,28.809,8.789,32.227
1635968537,-12.695,41.016,27.832,18.555,37.598
1635968537,3.418,31.738,32.715,21.973,21.484
1635968537,72.266,21.484,34.668,11.23,1.953
1635968537,61.523,23.926,34.18,5.859,20.508
1635968537,-16.113,31.738,34.18,23.926,44.434
1635968537,-19.043,34.668,27.832,28.32,10.742
1635968537,44.922,26.855,30.273,17.578,-5.859
1635968537,78.613,20.02,29.785,8.789,12.695
1635968537,12.207,26.855,29.785,18.066,33.691
1635968537,-13.672,29.785,29.785,30.273,4.395
1635968537,35.156,25.879,23.438,24.414,-28.809
1635968537,89.355,30.762,23.926,20.02,-8.789
1635968537,41.016,37.598,25.879,26.367,14.16
1635968537,-17.578,35.156,29.297,28.809,16.113
1635968537,-2.441,30.762,33.691,23.926,20.02
1635968537,62.988,29.297,30.273,11.23,37.598
1635968537,41.992,27.832,26.367,8.301,20.996
1635968537,-24.902,25.391,24.902,11.23,31.25
1635968537,-15.625,28.809,25.879,9.277,35.156
1635968537,48.828,40.039,26.855,1.953,21.973
1635968537,54.688,38.574,23.438,-2.93,19.043
1635968537,-15.625,30.273,26.367,10.742,-14.648
1635968537,-30.762,29.297,35.645,13.184,-2.441
1635968537,21.973,28.32,36.621,3.906,31.25
1635968537,56.641,29.785,27.832,3.906,49.316
1635968537,-10.254,33.203,25.391,9.277,43.457
1635968537,-42.48,27.344,26.367,9.766,37.598
1635968537,3.418,19.043,27.344,5.371,55.664
1635968537,61.523,22.949,27.344,-1.465,19.531
1635968537,7.324,24.414,26.855,2.441,-3.906
1635968537,-41.016,25.391,29.297,12.695,-20.508
1635968537,-12.207,29.785,28.809,9.766,13.672
1635968537,47.363,25.879,27.344,0.977,35.156
1635968537,30.273,30.273,25.879,7.812,-7.324
1635968537,-32.715,36.621,26.367,19.043,13.672
1635968537,-23.438,35.156,27.832,19.531,12.695
1635968537,38.086,39.062,31.25,12.207,47.852
1635968537,52.734,38.574,29.785,8.789,87.891
1635968537,-12.695,32.715,27.832,14.648,44.922
1635968537,-25.391,28.32,28.809,15.137,10.254
1635968537,20.508,28.809,21.973,12.207,41.016
1635968537,60.059,30.273,18.066,6.348,43.457
1635968537,6.836,29.297,28.809,14.648,21.973
1635968537,-24.902,31.738,34.668,24.902,38.574
1635968537,5.859,31.738,35.156,19.531,44.922
1635968537,63.965,30.762,28.809,9.766,39.551
1635968537,36.133,31.25,19.531,19.043,5.859
1635968537,-28.32,34.18,21.484,31.25,36.133
1635968537,-18.555,29.785,24.902,27.832,22.949
1635968537,50.293,20.996,23.926,12.695,3.418
1635968537,50.781,26.855,29.297,11.719,101.562
1635968537,-13.672,32.227,33.691,23.926,70.312
1635968537,-12.695,31.25,30.273,22.949,-6.348
1635968537,44.922,31.738,27.832,12.695,1.465
1635968537,57.129,33.691,30.762,4.395,18.066
1635968537,-13.672,26.367,34.18,13.672,36.621
1635968537,-32.227,24.414,34.18,21.484,42.969
1635968537,19.043,27.832,31.25,15.625,18.066
1635968537,69.336,24.414,26.855,4.883,-34.668
1635968537,12.695,27.344,27.832,9.277,3.906
1635968537,-34.18,30.273,29.785,13.184,55.176
1635968537,0,27.344,27.832,12.695,43.945
1635968537,59.57,24.414,27.832,6.348,75.195
1635968537,20.508,27.832,31.738,7.324,55.664
1635968537,-36.621,32.227,32.715,16.113,-30.273
1635968537,-19.043,31.738,30.762,15.625,8.789
1635968537,46.387,33.691,37.109,5.371,30.762
1635968537,55.176,33.691,37.598,1.465,36.621
1635968537,-14.648,34.18,33.691,13.672,20.02
1635968537,-19.043,33.203,29.297,16.602,-8.789
1635968537,41.016,33.203,26.855,7.812,24.414
1635968537,65.918,32.227,29.297,3.906,24.414
1635968537,2.441,32.715,30.762,9.277,25.391
1635968537,-25.391,31.738,29.297,7.812,-3.906
1635968537,21.484,33.203,30.273,4.883,-20.996
1635968537,82.031,37.598,27.344,0,11.23
1635968537,31.738,36.133,26.367,8.301,17.578
1635968537,-22.461,37.109,35.156,20.508,-24.902
1635968537,-1.953,33.203,36.621,18.555,-4.395
1635968537,67.383,32.715,27.344,13.184,60.059
1635968537,56.641,27.344,27.344,14.648,46.387
1635968537,-8.789,25.391,31.25,21.484,-3.906
1635968537,-2.441,34.18,29.785,20.996,11.719
1635968537,63.477,36.621,28.32,10.254,38.574
1635968537,73.73,31.738,23.926,3.906,21.973
1635968537,-1.953,27.832,23.438,13.672,34.18
1635968537,-16.113,26.367,29.785,21.973,96.191
1635968537,40.527,30.273,31.738,11.23,48.828
1635968537,82.031,37.598,29.785,1.465,14.648
1635968537,15.137,35.156,28.809,11.719,65.918
1635968537,-17.578,30.273,27.344,19.043,36.621
1635968537,21.484,26.367,25.879,19.531,-19.531
1635968537,73.73,27.832,25.391,10.742,-7.324
1635968537,35.156,26.855,21.484,15.137,-21.973
1635968537,-19.043,25.879,24.414,31.25,-24.414
1635968537,0.488,27.344,35.156,32.715,25.391
1635968537,71.289,35.156,40.527,26.367,48.828
1635968537,57.617,40.039,35.156,24.414,109.375
1635968537,-22.461,28.809,28.809,27.832,55.176
1635968537,-17.09,23.438,24.902,26.855,-20.02
1635968537,40.527,33.691,26.367,13.672,16.113
1635968537,49.805,36.133,27.832,-1.465,41.016
1635968537,-13.184,33.691,23.926,10.742,32.227
1635968537,-25.879,31.25,25.391,20.508,27.832
1635968537,29.785,31.25,21.973,13.184,34.668
1635968537,77.637,34.668,20.02,5.859,-6.348
1635968537,16.113,30.273,24.414,12.695,2.441
1635968537,-25.391,25.879,29.785,16.602,64.453
1635968537,10.254,32.715,28.32,12.695,69.824
1635968537,79.102,35.156,24.902,5.371,24.414
1635968537,48.34,30.273,31.25,9.766,6.836
1635968537,-15.137,39.551,30.273,22.461,1.465
1635968537,4.883,42.48,30.762,19.531,-14.16
1635968537,68.848,39.551,33.203,3.906,-23.926
1635968537,67.383,32.227,32.715,8.789,7.324
1635968537,-0.977,27.832,34.18,27.344,21.484
1635968537,-3.906,34.668,36.133,29.297,-13.184
1635968537,60.547,37.109,31.25,20.02,0.488
1635968537,85.449,40.527,32.715,10.742,11.719
1635968537,5.371,38.086,39.062,18.066,9.766
1635968537,-27.344,33.203,35.156,21.973,7.812
1635968537,22.461,39.551,30.762,10.254,-1.465
1635968537,75.195,39.551,30.762,3.906,24.414
1635968537,17.09,36.621,33.691,14.648,43.457
1635968537,-31.25,39.551,28.809,22.949,51.27
1635968537,-2.93,39.551,24.414,17.09,16.602
1635968537,64.941,41.504,23.926,2.441,2.93
1635968537,45.898,42.969,25.391,6.836,-1.465
1635968537,-15.137,35.156,23.926,20.996,-47.363
1635968537,-4.395,31.738,20.02,18.066,32.227
1635968537,-10.254,41.016,29.297,12.207,30.762
1635968537,-25.879,40.527,33.691,12.207,13.672
1635968537,30.762,33.691,33.203,3.906,27.344
1635968537,67.383,31.25,28.32,-0.977,32.715
1635968537,-3.418,25.391,25.879,5.371,-4.883
1635968537,-41.992,24.902,26.855,8.301,4.395
1635968537,8.789,23.926,25.879,13.672,32.227
1635968537,78.125,18.555,25.879,9.277,75.684
1635968537,34.668,32.227,26.855,12.695,75.195
1635968537,-28.809,39.062,27.344,24.902,32.227
1635968537,-9.277,27.832,34.668,20.508,23.926
1635968537,62.012,21.973,38.086,14.16,40.527
1635968537,50.293,27.344,33.691,18.555,36.621
1635968537,-17.578,26.367,34.668,23.438,54.199
1635968537,-9.766,26.855,37.598,23.438,16.113
1635968537,64.941,36.133,35.645,11.719,0.977
1635968537,87.891,37.109,36.133,3.906,53.223
1635968537,6.836,31.738,31.25,9.766,48.34
1635968537,-15.137,29.785,24.414,13.672,11.23
1635968537,38.574,33.203,27.344,9.277,29.297
1635968537,76.172,28.809,32.715,2.93,78.125
1635968537,8.789,27.832,29.297,20.996,25.879
1635968537,-38.086,32.227,24.902,26.367,3.906
1635968537,2.93,32.715,30.762,22.461,22.461
1635968537,77.637,31.738,34.18,20.508,32.227
1635968537,41.016,23.438,35.645,20.02,53.711
1635968537,-24.902,18.066,33.691,25.879,36.621
1635968537,-7.324,24.902,29.785,23.438,14.16
1635968537,62.012,31.738,31.25,15.137,23.438
1635968537,66.895,31.738,24.414,19.043,6.348
1635968537,-1.953,27.344,21.484,29.785,28.32
1635968537,-12.695,26.855,26.855,27.344,12.207
1635968537,54.688,29.297,27.832,18.066,-24.902
1635968537,90.82,23.926,21.484,13.184,10.254
1635968537,10.742,23.438,22.461,17.578,36.133
1635968537,-23.926,24.414,27.344,20.508,36.621
1635968537,28.809,25.391,26.855,12.207,52.246
1635968537,84.473,27.832,20.996,-0.977,30.762
1635968538,31.25,32.715,23.926,7.812,-15.625
1635968538,-19.531,35.645,26.855,18.555,-25.391
1635968538,8.301,32.227,22.949,8.301,3.906
1635968538,68.848,26.855,20.02,-4.883,42.969
1635968538,39.551,27.832,19.043,1.953,31.738
1635968538,-25.879,31.738,19.043,14.16,32.227
1635968538,-13.672,32.715,21.484,19.531,20.508
1635968538,54.199,32.227,15.625,15.137,7.324
1635968538,64.941,25.391,13.672,11.23,-15.137
1635968538,-4.883,15.137,21.973,20.02,-42.969
1635968538,-16.113,21.484,24.414,23.438,-23.438
1635968538,41.504,30.273,23.926,20.996,13.184
1635968538,69.824,28.32,24.414,17.578,31.738
1635968538,2.93,26.367,21.973,15.625,28.32
1635968538,-26.855,28.32,19.531,18.555,22.949
1635968538,15.137,36.621,24.414,11.719,9.277
1635968538,75.195,32.715,24.414,-6.348,-15.137
1635968538,25.879,26.367,20.02,-2.93,27.344
1635968538,-32.715,25.391,19.043,6.836,20.996
1635968538,-6.836,23.926,16.602,6.348,22.949
1635968538,66.406,25.391,22.461,3.418,34.668
1635968538,49.805,27.344,25.879,5.859,30.762
1635968538,-21.973,36.621,21.484,11.23,26.367
1635968538,-19.043,34.668,28.32,15.137,-10.254
1635968538,47.363,20.508,32.715,11.23,43.945
1635968538,67.383,22.949,30.273,10.742,37.109
1635968538,-8.789,26.855,27.832,24.902,-3.418
1635968538,-26.367,26.367,30.273,27.832,17.09
1635968538,38.086,28.32,34.18,20.996,0
1635968538,82.52,29.785,36.133,11.719,11.23
1635968538,8.789,30.762,28.809,15.137,47.852
1635968538,-35.645,27.344,20.02,25.391,41.992
1635968538,3.906,23.438,23.438,19.531,68.848
1635968538,69.824,22.949,23.438,0.977,65.43
1635968538,23.926,26.367,25.391,6.836,-2.441
1635968538,-40.039,27.832,34.18,17.09,-11.719
1635968538,-15.625,29.785,29.785,14.648,28.32
1635968538,60.547,30.762,21.484,0,22.949
1635968538,52.734,26.367,27.344,-3.418,29.297
1635968538,-31.738,22.461,30.762,10.254,7.324
1635968538,-38.086,21.484,27.344,10.254,22.949
1635968538,35.645,24.414,27.344,3.418,35.645
1635968538,68.359,24.902,28.32,1.465,-9.766
1635968538,-6.836,28.809,24.414,18.555,9.766
1635968538,-30.762,36.133,27.832,34.18,32.715
1635968538,25.391,37.598,31.25,27.344,24.902
1635968538,81.543,28.32,27.832,15.137,18.555
1635968538,29.785,27.832,26.367,23.438,37.109
1635968538,-18.555,35.645,29.297,37.598,46.387
1635968538,12.207,32.715,29.785,34.18,-9.277
1635968538,83.984,28.32,23.926,16.113,-13.672
1635968538,49.805,28.32,25.391,19.043,50.293
1635968538,-19.531,32.227,30.273,28.809,41.016
1635968538,-8.789,29.785,30.273,24.902,-18.066
1635968538,64.941,23.926,27.832,12.695,7.812
1635968538,73.73,29.785,21.973,11.23,57.129
1635968538,-5.859,35.156,22.949,23.438,26.855
1635968538,-14.16,28.32,27.832,22.949,19.043
1635968538,41.504,23.926,27.832,9.766,38.086
1635968538,73.73,26.855,24.414,1.953,38.574
1635968538,1.953,26.367,20.508,11.23,-6.836
1635968538,-35.645,30.273,20.02,17.578,26.855
1635968538,13.184,29.297,23.438,15.625,44.434
1635968538,79.102,32.227,26.855,6.348,35.645
1635968538,27.832,40.039,32.227,11.719,10.742
1635968538,-39.551,29.297,38.086,18.555,-14.16
1635968538,-15.625,19.531,32.715,12.207,52.734
1635968538,59.082,22.461,29.297,-0.488,65.43
1635968538,34.18,23.926,26.367,4.883,35.156
1635968538,-41.504,28.809,26.855,20.02,36.133
1635968538,-36.621,31.738,29.785,20.508,31.25
1635968538,41.504,25.879,30.762,12.695,32.715
1635968538,64.453,23.926,31.738,12.695,38.086
1635968538,-14.648,28.32,31.738,25.879,56.641
1635968538,-39.062,26.367,30.273,24.414,41.992
1635968538,26.367,28.809,35.645,9.766,46.875
1635968538,77.148,28.809,31.738,2.93,63.477
1635968538,9.277,28.32,27.832,11.23,32.227
1635968538,-26.367,31.738,36.133,19.531,-0.977
1635968538,18.555,31.738,32.227,13.184,6.348
1635968538,85.449,23.438,26.855,-1.465,8.789
1635968538,34.668,23.438,24.414,4.395,37.109
1635968538,-35.156,30.762,22.461,18.066,78.125
1635968538,-14.16,28.32,28.32,21.484,93.75
1635968538,62.988,25.391,29.297,11.23,56.152
1635968538,56.152,25.391,27.832,9.277,30.273
1635968538,-13.184,24.902,33.203,22.949,37.598
1635968538,-15.625,26.855,32.715,23.926,31.25
1635968538,50.293,26.367,27.344,13.672,21.973
1635968538,81.543,20.508,22.461,11.719,72.754
1635968538,4.883,26.367,28.32,23.438,60.547
1635968538,-27.344,27.344,33.691,27.344,-16.113
1635968538,33.691,24.414,31.738,18.066,43.945
1635968538,90.82,30.273,29.785,10.742,62.5
1635968538,17.09,30.273,32.715,22.461,11.719
1635968538,-36.621,22.461,34.18,27.344,-9.766
1635968538,2.441,22.461,35.156,23.438,32.715
1635968538,70.801,31.25,31.25,13.184,30.273
1635968538,31.738,29.785,29.785,14.648,-17.578
1635968538,-35.156,27.832,32.227,21.973,25.879
1635968538,-15.625,30.762,32.715,21.973,4.883
1635968538,62.988,28.809,36.133,16.602,8.301
1635968538,57.617,25.879,36.133,16.113,34.18
1635968538,-27.832,23.926,35.156,26.367,20.996
1635968538,-36.621,20.996,35.156,24.414,11.719
1635968538,40.039,25.391,28.32,13.184,18.066
1635968538,75.684,33.691,26.367,9.277,37.109
1635968538,-6.836,35.645,28.32,16.113,12.207
1635968538,-38.574,30.273,25.391,21.484,41.504
1635968538,10.742,28.32,23.438,13.184,46.387
1635968538,67.383,24.902,23.438,-2.441,20.996
1635968538,14.16,19.043,23.438,1.465,14.16
1635968538,-43.457,24.414,23.926,11.719,-4.883
1635968538,-8.789,31.25,19.531,9.277,2.441
1635968538,66.406,28.809,22.461,3.906,18.066
1635968538,33.691,23.438,34.668,7.324,-9.766
1635968538,-42.969,17.578,38.086,15.625,1.953
1635968538,-41.016,17.578,36.621,10.742,5.859
1635968538,30.762,25.391,30.762,0.488,-1.953
1635968538,44.434,21.973,29.785,0.488,56.152
1635968538,-31.738,23.926,33.691,14.16,64.941
1635968538,-41.992,30.273,30.273,18.066,13.672
1635968538,22.461,25.391,28.809,6.348,27.832
1635968538,64.941,20.02,29.297,-2.93,33.203
1635968538,0.488,18.555,25.879,5.371,26.855
1635968538,-32.715,22.461,24.902,12.207,58.105
1635968538,9.766,25.391,22.461,5.371,78.125
1635968538,81.543,27.832,25.879,3.418,89.844
1635968538,36.133,27.344,28.809,14.648,62.012
1635968538,-26.855,28.32,28.809,18.555,57.617
1635968538,-2.93,29.297,31.25,22.461,103.027
1635968538,69.336,22.949,29.785,9.766,69.336
1635968538,41.016,18.555,23.926,5.859,1.953
1635968538,-35.645,21.484,19.531,15.625,6.836
1635968538,-27.344,28.32,20.508,10.742,38.086
1635968538,44.922,34.18,22.949,3.418,17.578
1635968538,71.289,31.738,26.367,2.93,15.625
1635968538,-7.324,30.273,28.32,17.578,15.625
1635968538,-31.738,29.297,31.738,19.043,12.207
1635968538,28.809,30.762,27.344,8.789,-15.137
1635968538,82.031,31.25,22.949,4.395,38.574
1635968538,20.02,29.297,27.344,11.23,78.613
1635968538,-25.391,31.738,28.32,15.625,8.789
1635968538,15.137,30.273,26.367,12.207,-8.789
1635968538,81.055,29.297,22.949,-1.465,9.277
1635968538,29.297,29.297,25.879,2.93,8.789
1635968538,-39.551,26.855,30.762,17.09,22.461
1635968538,-14.648,25.879,31.25,14.648,21.973
1635968538,54.199,26.855,28.32,4.395,19.043
1635968538,42.48,28.809,29.785,1.465,24.902
1635968538,-34.18,29.297,30.762,7.324,30.273
1635968538,-35.156,23.926,36.621,12.207,59.57
1635968538,38.574,20.02,33.691,3.906,23.926
1635968538,64.453,17.578,24.414,-4.395,21.973
1635968538,-13.184,12.207,27.344,11.23,63.965
1635968538,-38.574,18.555,29.785,18.066,66.895
1635968538,18.555,20.996,34.18,9.277,59.57
1635968538,77.148,20.508,31.25,0,23.438
1635968538,20.02,25.391,28.32,11.23,51.27
1635968538,-36.621,25.391,29.297,20.996,48.34
1635968538,-6.348,30.273,30.273,13.184,20.02
1635968538,70.801,30.273,27.832,5.371,-0.977
1635968538,39.551,25.391,23.926,5.859,10.254
1635968538,-26.367,27.344,26.855,18.555,21.484
1635968538,-0.977,28.809,27.344,27.344,13.672
1635968538,75.684,26.855,26.855,20.996,11.719
1635968538,72.754,24.902,24.414,13.672,-0.488
1635968538,-6.836,29.785,23.926,19.531,11.23
1635968538,-17.09,35.156,27.344,20.02,-23.438
1635968538,47.363,30.273,27.832,9.277,17.578
1635968538,83.008,27.832,24.902,4.883,84.961
1635968538,13.672,35.156,28.32,19.531,70.801
1635968538,-21.973,35.645,36.621,24.414,50.293
1635968538,32.227,34.668,34.668,18.066,37.598
1635968538,102.539,35.645,25.391,15.625,44.922
1635968538,41.992,32.227,19.043,20.508,68.359
1635968538,-20.508,32.227,20.02,27.344,51.27
1635968538,8.789,33.691,21.973,28.809,8.301
1635968538,82.031,34.668,25.391,17.578,29.785
1635968538,57.129,37.598,27.344,14.16,62.012
1635968538,-17.578,38.574,29.297,27.344,14.648
1635968538,-14.16,30.762,31.25,28.32,-7.324
1635968538,54.688,26.855,28.32,11.719,68.848
1635968538,71.289,30.762,30.273,5.859,75.684
1635968538,-3.906,31.25,33.203,21.973,45.41
1635968538,-19.043,33.203,28.809,26.855,-13.184
1635968538,45.898,38.086,28.32,17.578,16.602
1635968538,96.191,37.598,30.762,15.137,53.711
1635968538,25.391,36.133,26.855,25.879,24.414
1635968538,-9.277,35.156,22.949,26.855,54.688
1635968538,29.785,35.645,26.855,17.09,3.906
1635968538,80.566,39.062,20.02,6.348,10.254
1635968538,44.434,37.109,19.043,14.16,35.156
1635968538,-13.672,39.062,26.855,22.461,-15.137
1635968538,1.953,42.969,30.762,20.996,4.395
1635968538,75.684,41.992,31.25,12.207,4.883
1635968538,62.988,40.039,27.832,5.859,-22.949
1635968538,-18.066,42.48,28.809,15.625,-4.395
1635968538,-23.926,40.039,28.32,16.602,55.176
1635968538,46.387,30.762,25.879,6.836,40.527
1635968538,73.242,29.297,22.949,3.418,5.859
1635968538,-5.859,32.227,26.855,14.648,27.832
1635968538,-28.32,33.203,33.203,25.879,19.043
1635968538,28.32,30.273,29.785,18.555,22.949
1635968538,72.266,26.855,23.926,8.789,43.945
1635968538,17.09,27.344,25.879,17.09,2.93
1635968538,-32.227,33.691,35.645,22.461,20.996
1635968538,-3.906,37.109,38.574,20.996,51.758
1635968538,75.684,35.645,33.691,14.648,26.367
1635968538,38.086,36.621,28.809,18.066,29.297
1635968538,-37.598,37.598,30.273,28.32,59.57
1635968538,-24.414,30.273,32.715,24.902,43.945
1635968538,56.152,23.438,28.809,9.766,6.836
1635968538,62.5,27.344,25.879,10.254,11.719
1635968538,-15.625,30.762,26.367,23.438,-6.348
1635968538,-18.555,29.785,31.738,25.879,-12.207
1635968538,44.922,33.691,33.691,20.508,-8.301
1635968538,70.801,27.344,26.367,13.672,-0.977
1635968538,0.488,22.461,20.508,16.113,6.348
1635968538,-28.32,28.809,22.949,17.578,8.301
1635968538,27.344,34.668,27.344,10.742,30.273
1635968538,89.844,36.621,24.902,1.953,4.883
1635968538,28.809,30.762,29.785,7.324,7.324
1635968538,-28.809,28.32,30.762,10.742,40.039
1635968538,1.953,29.297,25.879,1.465,36.621
1635968538,76.66,23.438,22.949,-8.789,15.137
1635968538,49.316,20.508,20.996,-5.371,6.836
1635968538,-24.414,24.414,18.066,3.418,30.762
1635968538,-15.625,25.391,19.043,1.465,33.203
1635968538,55.176,26.855,17.09,-5.859,20.996
1635968538,58.594,33.691,15.625,-3.906,14.16
1635968538,-18.555,29.297,23.926,12.207,25.879
1635968538,-33.691,25.879,30.273,20.508,55.176
1635968538,31.25,28.32,30.762,11.23,4.883
1635968538,74.707,18.066,30.273,2.93,-7.812
1635968538,-0.488,17.578,27.344,12.207,27.832
1635968538,-41.504,22.949,25.391,20.508,19.043
1635968538,5.859,28.32,30.273,16.602,31.738
1635968538,71.289,33.203,27.832,9.277,26.367
1635968538,26.367,33.203,23.926,16.113,20.996
1635968538,-35.156,28.32,23.926,21.973,28.809
1635968538,-13.184,27.344,25.879,19.531,51.27
1635968538,69.336,32.227,22.461,8.789,56.641
1635968538,48.828,31.25,16.602,2.93,26.855
1635968538,-28.809,30.273,29.297,17.578,41.992
1635968538,-22.461,25.879,38.086,21.484,20.02
1635968538,53.223,20.996,26.855,8.301,19.043
1635968538,69.824,27.832,26.367,6.836,26.855
1635968538,-19.043,28.32,29.297,17.09,-0.488
1635968538,-41.016,27.344,31.738,20.996,7.812
1635968538,23.926,31.738,34.18,14.16,62.988
1635968538,72.266,25.391,29.297,2.93,79.102
1635968538,6.836,21.973,25.879,10.254,55.176
1635968538,-33.691,28.32,25.879,17.578,23.438
1635968538,3.906,32.715,27.832,15.625,25.879
1635968538,75.684,33.203,30.273,8.301,58.594
1635968538,38.086,30.273,30.762,13.672,38.574
1635968538,-26.367,30.273,29.785,27.832,37.109
1635968538,-5.371,31.738,29.785,25.391,17.09
1635968539,74.219,30.273,26.367,16.113,-36.621
1635968539,65.918,25.391,24.902,16.113,-20.508
1635968539,-19.531,26.855,32.227,24.902,22.949
1635968539,-22.949,31.25,35.156,27.832,46.875
1635968539,46.875,31.738,27.344,14.648,51.27
1635968539,71.289,31.25,25.391,8.301,33.203
1635968539,-9.766,32.715,31.25,20.02,7.812
1635968539,-29.785,28.32,28.809,27.832,18.555
1635968539,38.086,20.02,19.043,33.691,17.578
1635968539,84.961,15.137,19.043,9.277,26.855
1635968539,12.207,23.926,23.438,-1.465,64.453
1635968539,-33.691,38.574,26.855,13.184,61.035
1635968539,-0.977,40.527,29.297,11.23,45.898
1635968539,69.824,35.156,23.438,2.441,39.062
1635968539,40.527,30.273,18.555,2.93,22.949
1635968539,-27.832,29.297,22.949,10.742,-8.301
1635968539,-14.16,29.297,25.879,13.672,12.695
1635968539,65.918,30.762,25.391,9.277,43.945
1635968539,72.266,31.738,23.926,16.113,40.527
1635968539,-16.113,29.297,27.832,28.32,11.719
1635968539,-30.273,23.926,29.297,23.926,18.066
1635968539,40.039,20.02,28.32,16.113,49.805
1635968539,79.59,23.926,30.762,7.812,38.086
1635968539,1.465,26.855,32.227,14.16,48.34
1635968539,-36.133,31.25,30.762,17.578,60.547
1635968539,20.02,35.645,28.809,12.695,19.531
1635968539,84.473,24.414,22.949,6.836,37.598
1635968539,20.996,17.09,23.926,11.23,37.598
1635968539,-36.621,25.879,30.273,18.066,5.859
1635968539,0.977,28.809,33.203,8.789,5.371
1635968539,77.148,25.391,30.762,1.465,24.414
1635968539,53.223,23.438,28.809,12.207,14.648
1635968539,-28.32,20.996,32.715,21.973,0.488
1635968539,-20.996,21.484,29.297,15.625,20.508
1635968539,57.129,26.367,25.879,8.789,56.152
1635968539,71.289,27.832,26.367,7.812,42.48
1635968539,-10.742,29.785,24.902,17.09,14.648
1635968539,-23.438,37.109,29.297,22.461,64.453
1635968539,44.922,33.691,36.133,16.113,76.172
1635968539,88.867,25.391,31.738,6.836,-7.324
1635968539,16.113,28.809,23.926,16.113,-10.254
1635968539,-34.18,26.367,21.973,22.949,22.949
1635968539,7.812,27.344,21.973,14.648,3.418
1635968539,75.195,31.738,27.344,6.836,15.137
1635968539,33.203,31.25,33.691,14.16,22.461
1635968539,-27.832,30.762,36.621,28.32,54.688
1635968539,-7.812,25.879,35.156,21.973,27.344
1635968539,69.336,20.996,29.297,7.812,-40.039
1635968539,54.688,19.043,27.344,14.16,19.531
1635968539,-21.484,20.996,30.273,24.414,50.293
1635968539,-20.996,27.832,31.25,23.926,30.762
1635968539,50.293,31.25,32.227,16.602,39.062
1635968539,74.219,34.668,30.273,11.719,44.434
1635968539,-2.441,36.621,29.785,26.367,6.348
1635968539,-23.926,30.273,25.879,31.738,22.949
1635968539,37.598,27.832,25.879,18.555,39.062
1635968539,90.332,29.297,33.203,4.883,-0.977
1635968539,20.996,29.785,38.086,13.672,29.785
1635968539,-30.762,28.809,36.133,22.461,38.086
1635968539,10.742,34.18,30.273,19.043,38.086
1635968539,89.355,36.621,29.297,5.859,25.879
1635968539,42.48,32.227,33.203,1.953,44.434
1635968539,-29.785,29.785,32.715,11.23,74.219
1635968539,-10.254,26.855,23.926,12.207,38.086
1635968539,64.453,31.738,25.391,5.859,23.926
1635968539,61.523,36.133,25.391,10.254,1.465
1635968539,-19.531,37.109,20.996,22.949,49.316
1635968539,-25.879,40.039,30.273,21.973,56.152
1635968539,44.434,39.062,29.297,10.742,30.762
1635968539,79.102,29.297,21.484,4.883,57.129
1635968539,0.977,28.809,24.902,16.602,69.336
1635968539,-28.809,33.691,25.879,19.043,46.875
1635968539,29.297,37.109,24.414,12.207,34.18
1635968539,92.285,35.156,20.508,4.395,81.055
1635968539,36.621,37.109,24.414,11.23,56.152
1635968539,-25.391,41.992,25.879,15.137,-11.23
1635968539,0,40.527,14.648,8.301,2.93
1635968539,75.684,37.109,12.695,1.465,44.434
1635968539,55.176,33.203,13.672,4.883,10.742
1635968539,-21.484,29.785,20.996,17.09,-9.766
1635968539,-20.02,27.832,31.25,17.09,-9.277
1635968539,59.082,34.668,35.645,11.719,12.695
1635968539,68.848,38.574,30.273,13.184,38.086
1635968539,-18.555,35.156,23.926,17.578,32.715
1635968539,-29.297,27.832,28.809,22.949,-2.93
1635968539,39.062,24.414,23.438,12.207,-11.23
1635968539,79.59,28.32,17.578,1.953,38.574
1635968539,8.789,26.367,23.438,14.16,21.973
1635968539,-29.785,29.785,24.414,18.555,23.926
1635968539,16.602,37.598,23.926,12.695,59.57
1635968539,81.543,30.762,23.438,1.465,45.41
1635968539,28.809,24.414,20.996,5.859,51.27
1635968539,-37.598,30.273,20.508,13.184,44.434
1635968539,-12.695,32.715,17.09,8.301,42.48
1635968539,70.312,35.156,23.438,3.418,42.48
1635968539,50.781,34.668,29.297,5.371,29.785
1635968539,-26.367,28.809,30.273,14.648,25.391
1635968539,-19.531,25.391,23.926,16.602,45.41
1635968539,54.199,25.391,22.949,9.766,61.523
1635968539,69.336,30.273,24.414,8.301,20.508
1635968539,-6.836,37.109,30.762,20.02,-1.953
1635968539,-25.391,32.715,28.809,23.926,37.598
1635968539,31.25,28.32,20.996,13.672,14.16
1635968539,86.426,30.762,23.438,8.789,20.508
1635968539,13.672,33.691,24.902,15.625,37.598
1635968539,-44.922,34.668,29.785,16.602,0.977
1635968539,0.977,32.715,30.762,12.207,8.789
1635968539,76.172,36.133,30.762,4.395,56.152
1635968539,29.785,37.109,29.297,13.184,56.152
1635968539,-33.203,29.297,33.203,28.32,20.508
1635968539,-8.301,26.855,38.574,28.809,26.855
1635968539,69.336,27.832,32.227,16.602,8.301
1635968539,62.012,28.32,26.855,17.09,-17.578
1635968539,-21.973,31.738,29.297,29.785,27.344
1635968539,-26.367,34.668,29.785,26.367,15.137
1635968539,54.688,36.133,28.809,18.066,29.785
1635968539,86.426,37.109,26.855,11.719,83.496
1635968539,2.441,25.391,28.32,20.996,38.574
1635968539,-31.25,25.879,27.344,25.879,34.668
1635968539,28.32,39.551,25.879,14.16,40.039
1635968539,88.379,37.598,27.832,6.348,1.465
1635968539,25.879,36.133,34.668,17.09,-5.859
1635968539,-27.832,39.551,36.133,23.926,7.324
1635968539,3.906,39.551,30.273,18.066,14.648
1635968539,72.754,36.621,27.832,6.348,25.391
1635968539,27.344,28.809,26.855,3.906,54.688
1635968539,-46.875,26.855,28.32,15.625,46.387
1635968539,-29.297,26.855,25.391,17.09,38.574
1635968539,50.293,30.273,25.391,2.441,30.273
1635968539,61.523,35.645,25.391,2.441,35.645
1635968539,-20.02,29.785,25.391,11.23,69.336
1635968539,-36.133,25.879,26.367,13.672,56.152
1635968539,34.18,32.227,27.344,9.277,5.371
1635968539,75.195,33.691,29.785,-2.441,-5.371
1635968539,3.906,22.949,25.879,11.23,31.738
1635968539,-34.668,21.973,25.391,23.926,8.789
1635968539,18.555,37.598,30.762,19.043,0.977
1635968539,83.008,38.086,27.832,8.789,-3.906
1635968539,13.184,26.855,23.926,13.184,-6.348
1635968539,-48.34,27.344,33.691,22.949,2.441
1635968539,-17.578,30.273,39.551,20.02,0.488
1635968539,60.547,26.367,29.785,9.277,7.324
1635968539,33.691,24.414,28.32,9.277,39.551
1635968539,-42.48,30.762,27.832,19.531,35.645
1635968539,-30.273,32.715,26.367,16.602,18.066
1635968539,44.922,30.762,25.879,4.395,8.301
1635968539,61.035,32.227,23.926,3.906,13.184
1635968539,-20.02,30.762,24.902,12.207,23.438
1635968539,-34.668,27.344,23.926,18.555,13.672
1635968539,35.645,33.691,24.902,16.113,34.18
1635968539,84.473,38.574,25.879,9.277,36.133
1635968539,14.648,33.691,30.273,23.926,19.043
1635968539,-35.645,24.414,31.738,31.738,4.395
1635968539,12.695,23.438,27.832,25.391,-16.113
1635968539,88.379,30.273,30.762,21.973,-5.371
1635968539,36.621,29.785,34.668,25.391,15.625
1635968539,-31.25,31.25,26.367,32.227,47.852
1635968539,-2.441,34.18,31.738,34.18,56.152
1635968539,80.566,35.156,41.504,23.926,23.438
1635968539,62.5,33.691,34.668,18.066,4.395
1635968539,-20.02,29.785,31.25,20.996,15.137
1635968539,-19.043,32.715,33.691,25.879,26.367
1635968539,52.246,35.645,34.668,20.996,47.363
1635968539,76.172,32.715,30.762,13.672,52.734
1635968539,1.953,34.668,30.762,25.391,54.199
1635968539,-21.973,39.062,33.203,27.832,38.574
1635968539,35.645,36.621,27.344,16.602,-1.953
1635968539,91.309,31.738,19.043,9.766,16.113
1635968539,20.508,35.156,24.902,16.113,42.48
1635968539,-34.18,36.621,35.156,22.461,25.879
1635968539,9.766,32.227,34.668,20.996,22.949
1635968539,90.332,34.18,32.227,13.672,8.789
1635968539,47.852,36.133,30.762,15.625,22.949
1635968539,-31.25,32.715,30.273,20.02,22.461
1635968539,-17.578,26.367,27.832,14.648,2.93
1635968539,58.105,24.902,22.461,3.418,23.438
1635968539,54.199,26.855,20.02,7.324,32.227
1635968539,-23.926,26.367,20.508,20.996,0
1635968539,-33.203,28.32,20.996,21.973,1.953
1635968539,40.527,29.297,21.973,12.695,2.93
1635968539,73.242,27.832,20.996,12.207,-18.066
1635968539,-10.742,26.367,24.414,19.531,12.207
1635968539,-41.016,25.391,27.344,21.973,51.27
1635968539,16.602,22.461,29.785,16.113,9.766
1635968539,85.449,25.391,30.762,7.812,-7.324
1635968539,25.391,29.785,24.902,9.277,16.602
1635968539,-31.738,27.832,21.973,12.207,-7.324
1635968539,1.465,27.344,23.438,10.742,15.625
1635968539,71.289,23.926,22.461,-0.977,54.199
1635968539,43.945,22.949,18.555,0.488,43.457
1635968539,-26.367,24.414,17.09,10.742,34.18
1635968539,-18.066,22.461,21.484,11.23,48.828
1635968539,62.012,24.902,22.461,4.395,30.762
1635968539,74.707,29.297,21.973,5.371,12.695
1635968539,-8.789,22.949,29.297,18.066,7.812
1635968539,-28.32,20.508,31.738,18.066,1.465
1635968539,30.762,26.855,24.902,6.348,-10.742
1635968539,71.289,24.414,18.555,0.488,7.812
1635968539,-3.906,20.02,16.602,7.812,-0.977
1635968539,-44.434,22.949,18.066,16.602,-10.254
1635968539,5.859,25.391,20.996,11.719,37.109
1635968539,70.312,20.508,21.484,0,58.105
1635968539,12.695,25.879,22.949,1.465,32.227
1635968539,-49.805,29.785,26.367,7.324,-2.441
1635968539,-18.066,27.344,21.973,7.812,8.789
1635968539,57.617,24.902,17.09,-2.93,13.184
1635968539,37.598,21.973,19.531,-2.441,18.066
1635968539,-41.504,21.973,20.508,12.695,44.922
1635968539,-37.109,21.484,20.996,11.23,51.27
1635968539,36.621,22.461,22.949,-0.488,24.902
1635968539,51.758,24.414,25.879,0,-15.625
1635968539,-25.391,30.762,25.391,13.672,0
1635968539,-41.016,27.344,23.438,18.555,17.578
1635968539,21.973,20.508,24.902,9.766,33.691
1635968539,70.312,20.508,27.344,3.906,14.648
1635968539,3.906,24.902,20.02,12.695,1.953
1635968539,-41.016,28.809,22.949,18.066,23.438
1635968539,0.488,27.832,32.227,12.695,29.297
1635968539,69.824,29.297,30.273,1.953,4.395
1635968539,22.949,28.809,31.25,8.789,-54.199
1635968539,-47.852,27.344,26.367,20.508,-15.625
1635968539,-25.879,23.438,20.996,19.043,69.336
1635968539,54.688,24.902,17.09,10.742,60.059
1635968539,53.711,27.344,19.043,14.648,27.832
1635968539,-24.414,23.926,26.367,23.926,-7.324
1635968539,-32.227,28.32,27.832,19.531,-30.762
1635968539,44.434,38.574,28.809,12.695,-12.207
1635968539,74.219,31.738,29.297,11.23,-13.184
1635968539,-3.906,23.926,33.203,23.926,6.836
1635968539,-33.203,30.762,37.598,26.367,36.621
1635968539,17.578,30.273,32.715,12.695,27.344
1635968539,77.637,27.832,22.461,1.465,37.109
1635968539,17.578,27.832,21.484,4.883,23.926
1635968539,-41.504,25.391,31.25,11.23,-2.93
1635968539,-3.418,24.414,31.25,11.23,-4.395
1635968539,78.125,30.273,22.461,3.906,23.926
1635968539,48.34,27.344,22.949,6.836,39.062
1635968539,-26.855,27.832,25.391,17.09,32.227
1635968539,-15.625,35.645,21.973,19.531,-5.859
1635968539,68.848,35.156,22.461,9.277,-48.34
1635968539,73.73,30.273,27.832,2.93,-2.441
1635968539,-9.277,30.273,31.738,17.578,58.105
1635968539,-20.996,31.738,30.273,20.996,-15.625
1635968539,46.875,29.297,26.367,10.254,-36.621
1635968539,82.031,30.273,19.531,4.883,76.172
1635968539,0.977,25.879,17.09,14.648,55.664
1635968539,-36.133,22.949,20.996,19.043,-15.625
1635968539,14.16,28.32,21.973,9.766,-26.367
1635968539,81.543,33.691,25.879,3.418,49.316
1635968539,31.738,38.086,34.18,15.625,32.227
1635968539,-29.785,38.086,32.715,20.508,13.184
1635968539,3.906,39.062,36.621,18.555,63.965
1635968539,79.102,37.598,38.574,11.719,63.477
1635968540,43.945,38.086,33.203,6.348,66.406
1635968540,-29.297,41.504,32.227,13.672,35.156
1635968540,-21.973,40.039,40.527,16.113,35.645
1635968540,54.199,48.828,52.734,6.836,15.137
1635968540,53.711,48.828,52.246,-1.953,-1.953
1635968540,-48.828,38.086,42.969,-2.441,-26.855
1635968540,-74.707,48.828,45.898,-12.207,6.836
1635968540,-31.25,59.57,62.012,-48.828,80.566
1635968540,-9.277,63.965,67.383,-85.938,61.523
1635968540,-110.84,71.289,72.754,-104.492,49.316
1635968540,-183.594,71.289,83.496,-122.559,44.434
1635968540,-167.48,60.547,83.496,-161.621,-4.395
1635968540,-128.418,56.641,99.609,-211.426,-16.113
1635968540,-217.285,62.988,114.258,-247.07,27.832
1635968540,-327.637,79.102,127.441,-272.949,28.809
1635968540,-328.125,89.844,131.348,-300.293,26.855
1635968540,-250.488,101.562,125.488,-317.871,25.391
1635968540,-255.859,117.188,123.535,-314.453,7.324
1635968540,-330.078,120.117,122.07,-291.992,46.387
1635968540,-330.566,117.188,118.652,-278.32,11.23
1635968540,-244.629,127.441,112.305,-274.902,-23.438
1635968540,-199.219,131.836,108.398,-257.324,33.203
1635968540,-256.348,129.395,104.98,-222.656,50.781
1635968540,-255.859,119.141,102.051,-194.336,-1.465
1635968540,-166.016,111.816,101.074,-181.152,-10.254
1635968540,-87.891,111.328,87.891,-167.48,5.371
1635968540,-128.906,104.98,75.195,-128.418,14.648
1635968540,-151.367,92.773,77.148,-95.215,52.734
1635968540,-91.797,80.078,73.73,-78.613,56.152
1635968540,2.93,72.754,64.453,-59.082,-14.16
1635968540,-15.137,66.406,55.176,-32.715,-4.883
1635968540,-60.547,61.035,47.852,-0.488,21.973
1635968540,-20.508,50.293,44.434,23.926,17.578
1635968540,72.754,38.086,37.598,32.715,34.668
1635968540,75.684,27.344,26.855,36.621,23.926
1635968540,15.137,21.484,16.602,60.547,23.438
1635968540,27.344,25.391,14.16,80.566,14.16
1635968540,104.004,20.02,6.348,78.125,47.852
1635968540,150.391,9.766,-6.348,82.031,62.5
1635968540,80.078,1.953,-4.395,99.609,29.297
1635968540,50.781,1.465,-0.977,107.91,62.012
1635968540,115.723,1.465,-5.371,108.887,30.762
1635968540,183.594,-3.418,-15.625,106.445,-14.648
1635968540,132.812,-6.348,-21.973,115.723,-20.996
1635968540,89.844,-5.371,-20.02,129.883,6.836
1635968540,133.789,-3.906,-16.113,133.789,10.742
1635968540,218.262,-7.812,-14.648,126.953,12.207
1635968540,191.406,-9.766,-12.207,134.277,17.09
1635968540,110.352,-10.254,-13.672,143.555,10.254
1635968540,123.535,-7.324,-17.578,138.672,70.312
1635968540,203.613,-7.812,-16.113,131.836,73.242
1635968540,208.496,-18.555,-12.207,133.789,63.477
1635968540,127.441,-17.09,-8.301,146.484,91.309
1635968540,103.027,-12.695,-11.23,147.949,91.309
1635968540,154.785,-12.695,-10.254,136.23,48.34
1635968540,197.266,-9.277,-12.207,128.418,6.348
1635968540,128.906,-5.859,-12.207,139.16,24.902
1635968540,87.891,-4.883,-6.836,142.578,28.32
1635968540,135.254,1.953,-5.859,131.836,23.438
1635968540,204.102,5.859,-1.465,125.488,38.574
1635968540,145.02,4.883,-4.883,126.953,26.367
1635968540,80.566,1.953,-10.254,127.93,52.734
1635968540,106.934,-0.488,-3.906,120.117,38.086
1635968540,181.152,-1.465,0,104.004,8.301
1635968540,159.668,-2.441,2.93,104.492,51.27
1635968540,72.754,3.906,3.906,112.305,50.293
1635968540,71.777,7.812,4.883,110.352,19.043
1635968540,143.066,10.742,4.395,98.145,30.273
1635968540,156.25,11.23,5.859,90.332,46.387
1635968540,69.824,1.465,9.277,97.168,52.246
1635968540,45.898,1.465,6.836,98.145,66.406
1635968540,103.516,8.789,3.906,90.332,30.273
1635968540,150.879,15.137,2.441,79.102,7.812
1635968540,82.52,16.113,10.254,85.449,56.641
1635968540,31.738,12.207,15.137,90.82,36.133
1635968540,71.289,14.648,11.23,75.195,6.836
1635968540,143.066,14.648,11.719,65.43,13.672
1635968540,93.75,10.742,13.672,71.777,6.348
1635968540,17.09,10.254,17.09,74.707,41.016
1635968540,35.156,11.23,17.09,67.871,62.988
1635968540,108.398,9.277,17.09,51.758,69.336
1635968540,93.262,7.324,12.207,49.316,15.137
1635968540,19.531,13.184,13.672,62.988,-43.457
1635968540,18.066,15.625,19.531,61.035,-0.977
1635968540,85.938,18.555,18.555,52.246,31.25
1635968540,113.77,16.113,19.531,49.805,57.129
1635968540,30.762,8.301,22.949,54.199,65.43
1635968540,-0.977,13.184,21.484,54.688,10.742
1635968540,59.57,20.508,20.02,45.41,7.812
1635968540,117.676,20.508,17.578,32.227,4.395
1635968540,49.805,20.02,10.742,34.668,-20.02
1635968540,-7.812,24.414,12.207,39.062,-27.832
1635968540,22.461,22.461,16.113,30.273,21.484
1635968540,94.238,19.531,11.719,20.02,31.738
1635968540,60.059,18.555,16.602,25.391,10.742
1635968540,-16.602,20.02,22.461,36.133,0.977
1635968540,-1.465,23.438,26.367,33.203,-9.277
1635968540,80.566,23.926,27.832,20.02,27.344
1635968540,84.473,22.461,21.973,18.555,1.953
1635968540,7.812,24.902,18.066,27.832,22.949
1635968540,-0.977,22.461,21.484,33.203,61.035
1635968540,63.477,20.508,20.508,21.973,11.23
1635968540,98.633,33.203,19.043,12.695,13.672
1635968540,20.996,35.645,24.902,24.902,36.621
1635968540,-20.02,29.297,23.926,31.25,3.418
1635968540,25.391,27.832,19.531,22.949,8.789
1635968540,82.52,25.879,20.996,11.23,21.484
1635968540,25.391,22.461,22.949,18.066,4.883
1635968540,-28.32,31.25,26.367,29.297,24.414
1635968540,4.395,34.668,22.949,27.832,56.641
1635968540,77.148,29.297,20.996,17.09,42.969
1635968540,58.105,29.297,21.484,18.555,53.223
1635968540,-11.23,33.203,22.461,32.715,37.109
1635968540,-8.789,33.691,25.391,31.25,20.02
1635968540,63.965,35.645,27.344,15.625,34.668
1635968540,72.266,28.32,21.484,14.16,9.766
1635968540,-13.672,18.066,20.02,20.02,26.367
1635968540,-29.297,23.438,31.738,19.531,32.227
1635968540,41.504,30.762,29.785,15.625,3.906
1635968540,90.332,31.738,20.996,9.766,14.648
1635968540,14.648,29.297,20.508,14.648,48.34
1635968540,-23.438,33.203,23.926,25.391,46.875
1635968540,26.855,35.645,24.414,22.461,32.715
1635968540,84.473,25.391,27.344,10.254,20.02
1635968540,37.598,27.832,26.367,18.555,11.719
1635968540,-24.902,31.25,21.973,34.668,7.812
1635968540,-2.441,26.855,30.762,31.25,42.969
1635968540,77.637,26.855,31.738,17.09,55.664
1635968540,73.73,28.32,28.809,22.461,23.438
1635968540,-5.859,31.738,32.715,33.203,16.602
1635968540,-15.137,34.668,31.25,30.273,-10.742
1635968540,58.105,37.598,27.344,17.578,13.672
1635968540,79.59,40.039,27.344,10.742,105.957
1635968540,0.488,32.227,28.809,21.484,66.406
1635968540,-28.809,26.367,28.809,21.973,6.836
1635968540,31.25,36.133,29.785,10.742,49.316
1635968540,89.844,39.551,19.531,9.277,45.898
1635968540,20.508,31.738,14.648,20.508,9.277
1635968540,-33.691,26.855,25.391,26.367,14.16
1635968540,6.836,27.832,26.855,22.461,16.113
1635968540,85.449,34.668,25.879,9.766,19.531
1635968540,43.945,39.062,29.297,13.184,35.156
1635968540,-34.668,33.691,30.273,21.973,24.902
1635968540,-17.578,27.344,23.438,16.113,13.184
1635968540,63.965,29.785,18.555,3.906,-2.441
1635968540,61.035,32.715,24.902,6.836,7.812
1635968540,-21.973,28.32,28.809,20.508,41.504
1635968540,-28.809,24.902,23.438,19.531,24.414
1635968540,43.457,29.297,26.367,8.789,14.16
1635968540,74.219,29.297,29.297,4.883,40.039
1635968540,-7.324,32.227,26.367,13.184,10.742
1635968540,-34.668,37.598,23.438,17.578,-8.789
1635968540,24.902,29.297,27.344,16.113,39.062
1635968540,81.055,28.809,26.855,0.977,11.719
1635968540,23.926,31.25,27.832,5.371,7.812
1635968540,-24.902,29.297,30.762,18.555,50.293
1635968540,8.789,37.109,21.484,13.184,21.973
1635968540,77.637,35.645,16.113,2.441,33.203
1635968540,43.457,25.879,20.02,3.418,31.25
1635968540,-33.203,25.391,24.414,15.137,31.25
1635968540,-22.949,27.344,26.367,19.531,60.059
1635968540,55.664,28.32,20.996,6.348,49.805
1635968540,59.082,18.066,16.602,1.953,20.996
1635968540,-27.832,12.695,16.113,10.742,21.973
1635968540,-37.109,25.879,20.02,11.23,38.086
1635968540,31.25,30.762,26.367,7.324,39.551
1635968540,70.801,28.809,24.902,0.488,36.133
1635968540,-3.418,29.785,22.949,7.324,10.742
1635968540,-41.016,27.344,19.043,11.23,-19.531
1635968540,4.883,23.926,15.625,4.883,2.441
1635968540,72.266,26.367,20.508,-0.977,53.223
1635968540,25.879,27.344,24.902,5.371,40.527
1635968540,-37.598,25.391,26.855,16.602,-1.465
1635968540,-12.207,29.297,24.414,11.719,-16.113
1635968540,68.848,31.738,20.996,2.93,-24.902
1635968540,52.734,20.996,23.926,11.719,30.273
1635968540,-27.344,23.926,28.32,25.879,21.973
1635968540,-20.996,32.227,25.391,25.391,-20.508
1635968540,54.688,31.738,20.996,13.672,25.391
1635968540,65.43,27.344,20.508,7.324,31.25
1635968540,-15.625,27.344,20.508,19.043,25.879
1635968540,-27.832,32.227,28.32,29.297,45.41
1635968540,33.203,32.715,33.203,15.625,29.297
1635968540,73.73,32.227,26.855,5.371,1.953
1635968540,8.301,31.25,28.809,18.066,15.137
1635968540,-35.645,29.785,32.715,22.949,38.086
1635968540,9.277,26.855,26.367,16.602,26.367
1635968540,77.637,29.297,21.973,-1.953,34.18
1635968540,28.32,30.762,28.809,-0.488,21.484
1635968540,-33.691,27.344,33.203,16.602,-2.93
1635968540,-13.184,30.273,33.203,21.484,55.664
1635968540,62.5,32.715,27.344,10.742,83.496
1635968540,55.664,32.715,28.809,8.301,21.484
1635968540,-21.484,37.109,34.668,20.996,19.043
1635968540,-21.973,39.551,29.297,23.438,35.645
1635968540,51.27,33.203,28.32,10.742,23.926
1635968540,80.078,29.297,29.297,9.277,40.527
1635968540,8.301,30.273,29.785,27.344,-2.441
1635968540,-15.137,34.18,29.785,27.832,-23.926
1635968540,37.109,33.203,27.832,18.066,23.438
1635968540,91.797,28.32,26.855,10.254,72.754
1635968540,26.855,27.832,25.879,15.137,43.945
1635968540,-29.297,38.086,25.391,17.578,11.719
1635968540,1.953,37.109,23.926,10.742,20.996
1635968540,70.312,25.391,21.484,2.441,-1.953
1635968540,33.203,24.902,21.973,4.395,1.953
1635968540,-36.133,30.273,22.949,14.16,-19.531
1635968540,-13.672,30.762,24.414,16.113,-19.531
1635968540,60.059,28.809,24.414,6.836,42.48
1635968540,57.129,33.203,23.926,6.348,89.355
1635968540,-19.531,31.25,23.926,17.578,44.434
1635968540,-30.762,26.367,25.391,14.16,17.578
1635968540,35.156,22.949,23.926,7.812,24.414
1635968540,75.195,22.949,23.438,6.348,-22.461
1635968540,0.977,26.367,25.391,13.672,-14.648
1635968540,-40.039,25.879,27.832,18.066,25.879
1635968540,13.672,25.879,28.809,4.395,20.996
1635968540,77.148,23.438,24.414,-9.277,19.531
1635968540,13.672,23.438,29.785,0,14.648
1635968540,-38.086,28.32,32.715,13.672,15.137
1635968540,-7.812,25.391,24.414,10.742,-9.766
1635968540,71.777,16.602,25.879,-3.418,-36.621
1635968540,51.758,21.484,31.25,4.395,-9.766
1635968540,-22.461,25.391,29.297,20.508,20.996
1635968540,-12.695,22.949,24.414,24.902,50.293
1635968540,58.105,31.25,22.461,14.648,55.176
1635968540,67.871,38.574,31.25,6.836,58.105
1635968540,-13.184,38.086,31.25,18.066,68.848
1635968540,-27.832,30.273,24.414,20.508,51.27
1635968540,37.109,29.785,29.297,13.184,-2.441
1635968540,79.102,31.738,31.25,8.301,28.809
1635968540,3.906,25.391,30.762,13.184,58.105
1635968540,-36.621,23.926,31.738,19.043,27.344
1635968540,13.184,22.461,32.227,21.484,32.715
1635968540,81.055,25.391,33.691,14.16,40.527
1635968540,33.203,26.367,31.738,17.09,58.594
1635968540,-29.785,21.484,30.273,24.902,45.898
1635968540,-13.184,21.973,23.926,17.578,-9.766
1635968540,57.617,22.461,20.508,5.859,-18.555
1635968540,49.805,26.855,27.832,9.277,-20.508
1635968540,-27.832,28.32,30.273,20.02,-14.648
1635968540,-31.25,31.738,24.902,15.137,-14.16
1635968540,38.574,35.156,19.531,4.883,2.441
1635968540,65.43,31.738,21.973,1.465,17.09
1635968540,-10.742,25.879,22.949,15.137,20.508
1635968540,-31.738,21.973,22.949,20.02,2.441
1635968540,28.32,25.879,22.949,9.277,3.906
1635968540,82.52,25.879,22.949,2.93,28.809
1635968540,18.555,25.391,26.855,15.625,32.227
1635968540,-33.203,29.785,26.855,19.043,34.18
1635968540,5.859,30.273,24.902,10.742,24.902
1635968540,83.984,36.133,19.531,3.418,20.508
1635968540,48.34,32.715,13.672,9.277,-0.977
1635968540,-22.949,24.414,18.066,20.996,20.996
1635968540,-9.766,25.879,22.949,21.973,24.902
1635968540,68.359,29.297,24.414,12.695,6.348
1635968541,61.035,32.715,27.344,7.812,26.855
1635968541,-22.461,35.156,33.203,20.02,29.297
1635968541,-25.879,37.109,35.156,22.949,57.617
1635968541,42.969,41.504,29.785,12.695,65.918
1635968541,70.801,37.109,25.391,5.371,56.152
1635968541,-7.324,33.691,27.344,13.672,60.547
1635968541,-35.156,36.621,30.273,17.09,16.602
1635968541,29.785,35.645,31.738,13.672,32.227
1635968541,90.332,33.691,30.273,7.324,60.547
1635968541,23.438,27.832,27.832,11.719,33.203
1635968541,-37.109,28.32,24.902,18.555,15.625
1635968541,-6.348,38.086,24.902,14.16,-9.277
1635968541,72.266,38.086,25.391,7.324,6.348
1635968541,45.41,34.668,26.367,11.23,4.883
1635968541,-28.32,34.18,25.391,18.066,7.812
1635968541,-11.719,31.738,30.273,16.113,19.043
1635968541,66.895,35.645,34.668,8.789,36.621
1635968541,66.895,38.574,30.273,7.812,29.785
1635968541,-10.254,39.062,29.785,18.555,45.898
1635968541,-9.766,40.527,33.691,29.297,84.473
1635968541,51.27,34.668,30.273,23.926,57.617
1635968541,75.684,28.809,26.855,7.812,33.691
1635968541,-1.465,32.227,29.297,11.23,1.465
1635968541,-40.527,35.645,28.809,14.16,-28.32
1635968541,10.742,34.668,33.691,13.672,-3.906
1635968541,71.777,31.25,32.715,2.93,-19.531
1635968541,14.648,36.133,27.832,2.93,24.414
1635968541,-39.062,46.387,28.809,15.137,45.898
1635968541,-12.695,41.016,27.344,10.742,-19.531
1635968541,60.547,33.203,26.855,1.465,21.484
1635968541,51.27,33.691,28.809,3.418,52.734
1635968541,-27.344,38.086,28.32,16.113,32.227
1635968541,-30.762,36.621,29.297,20.508,34.668
1635968541,45.41,33.691,25.391,8.789,8.301
1635968541,62.5,33.203,20.996,2.93,22.461
1635968541,-18.555,32.227,25.391,10.742,23.438
1635968541,-38.574,34.668,24.414,14.648,-10.254
1635968541,19.531,33.691,24.414,5.371,-35.156
1635968541,71.289,34.668,29.297,-1.465,7.812
1635968541,11.23,39.062,32.715,11.23,38.086
1635968541,-36.621,30.762,30.273,14.16,16.113
1635968541,1.953,30.273,26.855,8.789,22.949
1635968541,74.219,40.039,23.926,4.395,-5.371
1635968541,35.156,39.062,24.414,14.648,-2.93
1635968541,-28.32,35.645,27.344,26.367,50.781
1635968541,-3.418,32.715,24.902,24.414,51.758
1635968541,73.242,29.785,25.391,16.113,20.02
1635968541,61.523,30.273,26.855,15.137,21.484
1635968541,-20.02,30.762,29.785,24.902,14.648
1635968541,-22.949,25.879,28.32,27.344,55.176
1635968541,50.781,24.902,20.508,18.066,63.477
1635968541,73.242,30.762,25.391,11.23,23.438
1635968541,-2.93,30.273,36.133,18.555,41.504
1635968541,-29.297,25.391,40.527,24.414,48.828
1635968541,25.391,25.879,32.715,15.625,39.062
1635968541,83.008,26.367,21.484,3.906,54.199
1635968541,22.949,23.926,22.461,11.719,-0.488
1635968541,-26.855,26.855,26.855,22.461,-4.883
1635968541,3.906,30.762,27.832,20.996,65.43
1635968541,76.66,28.32,23.926,9.766,22.461
1635968541,43.457,23.438,22.461,16.602,9.277
1635968541,-27.344,25.391,27.344,28.32,46.875
1635968541,-10.742,29.785,27.344,26.367,41.504
1635968541,60.547,27.344,28.809,18.066,42.969
1635968541,56.641,21.484,24.414,13.184,39.062
1635968541,-23.438,25.879,21.973,20.996,27.344
1635968541,-35.156,30.762,25.879,25.391,4.883
1635968541,37.109,29.785,27.832,15.137,43.457
1635968541,76.66,31.738,28.32,11.719,36.133
1635968541,2.441,31.25,27.344,25.391,29.785
1635968541,-34.18,32.715,29.785,23.926,65.43
1635968541,15.137,31.738,35.645,11.719,46.875
1635968541,81.055,26.367,35.156,4.883,28.809
1635968541,26.855,27.832,31.738,14.648,44.922
1635968541,-33.203,31.25,33.691,23.438,34.18
1635968541,-1.953,30.273,29.297,15.625,-16.113
1635968541,81.055,33.691,26.367,6.348,-24.902
1635968541,61.523,33.691,32.715,14.16,48.34
1635968541,-17.09,29.785,27.832,27.832,65.43
1635968541,-17.09,33.203,22.461,31.25,25.879
1635968541,52.734,38.086,30.762,24.414,19.043
1635968541,67.383,34.668,31.738,19.531,27.344
1635968541,-9.277,27.832,34.18,29.785,20.02
1635968541,-22.461,28.32,36.621,34.18,41.992
1635968541,46.387,36.621,40.039,24.414,29.785
1635968541,80.566,30.273,45.898,16.113,30.273
1635968541,-2.93,17.09,38.086,22.461,61.035
1635968541,-38.086,22.461,28.809,30.762,21.973
1635968541,13.672,31.25,27.832,23.926,43.945
1635968541,78.125,31.738,24.902,11.719,12.207
1635968541,28.32,24.414,27.344,14.16,-15.137
1635968541,-26.855,24.902,33.691,23.926,29.297
1635968541,6.348,29.785,35.156,25.879,9.766
1635968541,88.379,31.25,30.273,17.578,-21.484
1635968541,75.684,30.273,27.832,17.09,9.277
1635968541,-9.766,26.367,31.25,24.902,27.832
1635968541,-11.23,29.297,32.715,22.461,44.922
1635968541,64.453,37.109,35.645,12.695,35.645
1635968541,86.914,32.715,35.645,7.324,-10.254
1635968541,5.859,27.832,32.227,10.742,28.32
1635968541,-17.09,28.809,27.344,13.184,33.691
1635968541,36.621,26.367,25.391,6.836,2.441
1635968541,85.938,29.785,32.715,-2.441,18.555
1635968541,23.438,32.227,37.598,8.789,55.664
1635968541,-28.809,30.273,38.086,17.09,41.016
1635968541,12.695,33.203,30.273,9.277,17.09
1635968541,84.473,35.156,22.949,4.395,34.668
1635968541,46.875,26.855,33.203,10.742,21.484
1635968541,-23.438,27.832,38.086,14.16,5.371
1635968541,-16.113,28.32,26.855,12.207,36.621
1635968541,54.199,26.367,24.902,0.977,67.871
1635968541,47.852,26.855,26.855,-6.348,35.645
1635968541,-31.25,22.949,23.926,5.371,11.23
1635968541,-36.133,23.438,26.367,9.766,30.762
1635968541,32.227,21.484,27.832,-1.953,45.41
1635968541,58.105,20.02,26.367,-9.766,41.016
1635968541,-24.414,17.578,23.438,-1.953,26.367
1635968541,-54.199,17.09,20.508,3.906,34.18
1635968541,4.395,23.438,18.555,3.906,48.828
1635968541,69.824,25.391,24.902,-4.395,43.945
1635968541,14.16,29.785,30.273,9.766,45.898
1635968541,-40.527,35.645,24.902,26.367,34.668
1635968541,-11.719,28.809,18.555,18.066,22.461
1635968541,60.059,21.973,15.625,6.836,0.488
1635968541,33.691,23.438,18.066,13.672,-18.066
1635968541,-33.691,24.414,21.484,25.879,-16.602
1635968541,-15.137,28.809,24.902,26.855,36.133
1635968541,63.965,31.738,25.391,16.113,27.344
1635968541,67.383,26.367,23.438,12.207,-7.324
1635968541,-11.23,28.32,27.832,22.949,22.949
1635968541,-26.367,33.691,30.273,20.02,-14.16
1635968541,31.25,30.273,28.809,7.324,-13.184
1635968541,70.801,29.297,31.738,3.418,31.25
1635968541,-1.465,30.273,23.926,11.23,42.48
1635968541,-33.691,29.297,22.461,14.16,33.691
1635968541,20.508,31.25,27.832,13.184,-1.465
1635968541,83.984,33.203,25.879,6.836,-29.785
1635968541,32.715,38.086,23.438,11.23,10.254
1635968541,-25.879,34.668,20.508,19.043,70.312
1635968541,0,24.414,21.484,11.719,89.844
1635968541,69.824,24.902,18.555,-1.953,53.711
1635968541,40.039,28.32,18.555,0.488,-15.137
1635968541,-37.109,31.738,25.391,13.184,-4.395
1635968541,-34.18,31.25,24.414,14.16,67.871
1635968541,40.039,31.25,19.531,9.277,62.012
1635968541,66.406,35.645,20.508,11.23,12.207
1635968541,-11.23,33.203,20.02,19.043,-0.488
1635968541,-30.273,28.809,19.531,21.973,6.348
1635968541,37.598,25.879,25.879,13.672,20.02
1635968541,86.426,28.809,29.297,-1.465,-9.277
1635968541,14.648,32.715,26.855,7.812,-3.906
1635968541,-27.832,37.109,26.855,18.066,24.902
1635968541,10.742,36.621,24.902,6.348,5.859
1635968541,78.613,33.691,23.438,-8.789,11.719
1635968541,41.016,36.621,25.391,5.859,20.508
1635968541,-22.949,37.109,26.855,24.414,42.48
1635968541,-3.906,35.645,28.809,23.438,60.547
1635968541,71.777,29.785,27.344,13.672,-3.906
1635968541,63.965,28.809,28.32,16.113,-54.688
1635968541,-15.625,32.715,25.391,27.832,8.789
1635968541,-18.066,32.227,21.973,29.785,66.406
1635968541,53.223,35.156,23.926,20.02,50.293
1635968541,72.266,32.715,23.438,10.254,31.25
1635968541,-3.418,26.855,28.809,23.438,62.5
1635968541,-26.855,30.273,30.273,30.762,70.801
1635968541,29.297,36.621,30.762,19.531,52.246
1635968541,87.402,35.156,32.227,10.254,8.301
1635968541,18.555,36.133,28.809,12.207,2.441
1635968541,-40.527,37.109,27.832,16.602,31.738
1635968541,0.488,32.715,27.832,19.043,49.805
1635968541,75.684,33.691,27.344,11.719,43.945
1635968541,40.527,30.762,27.832,10.254,1.465
1635968541,-20.02,29.785,27.832,24.902,29.297
1635968541,-3.418,31.25,30.273,28.809,32.715
1635968541,68.359,31.25,34.18,19.043,-8.301
1635968541,71.289,36.621,35.156,21.484,-11.23
1635968541,-12.695,34.18,33.203,28.32,-0.977
1635968541,-20.508,31.738,31.738,28.32,20.02
1635968541,51.758,35.645,34.18,24.902,11.719
1635968541,84.473,34.18,35.156,10.254,46.387
1635968541,6.348,36.133,30.273,11.23,34.18
1635968541,-27.344,38.574,24.902,18.066,-0.977
1635968541,24.414,39.551,25.879,13.672,-6.348
1635968541,86.426,39.062,28.32,5.371,40.527
1635968541,28.809,34.668,27.832,8.789,70.801
1635968541,-33.691,36.621,31.25,18.066,24.902
1635968541,-4.883,39.551,29.785,12.207,50.293
1635968541,75.195,37.598,26.367,0.977,54.688
1635968541,47.852,38.574,32.715,7.324,12.207
1635968541,-29.297,39.062,35.156,16.602,40.039
1635968541,-16.113,39.551,30.273,18.555,55.664
1635968541,51.758,41.504,29.785,5.371,21.973
1635968541,56.641,32.715,30.273,-0.488,14.648
1635968541,-17.09,30.273,27.832,18.066,35.156
1635968541,-28.809,33.203,26.855,22.949,12.695
1635968541,33.691,34.18,27.832,9.766,11.719
1635968541,77.637,36.621,31.25,3.418,22.461
1635968541,6.836,34.668,28.809,15.625,6.348
1635968541,-37.109,29.785,32.227,24.414,79.102
1635968541,8.301,24.902,37.109,20.508,77.148
1635968541,79.59,24.414,31.738,10.254,3.906
1635968541,40.039,29.785,30.273,15.137,39.062
1635968541,-23.438,30.762,34.668,27.344,31.25
1635968541,2.93,29.785,32.715,28.809,13.184
1635968541,83.496,34.668,29.297,17.578,14.648
1635968541,61.035,30.273,30.273,18.066,14.648
1635968541,-14.16,25.391,21.484,28.809,24.414
1635968541,-9.766,25.391,20.996,27.832,0
1635968541,57.617,20.996,29.297,19.531,10.742
1635968541,81.055,25.879,30.273,15.625,21.484
1635968541,4.395,29.785,33.691,23.926,-8.789
1635968541,-17.09,28.809,32.227,28.809,14.16
1635968541,42.969,31.738,33.691,22.949,57.617
1635968541,91.309,31.738,30.273,17.578,70.312
1635968541,24.414,37.109,28.809,28.32,56.152
1635968541,-26.855,33.203,28.32,27.832,41.016
1635968541,10.742,29.297,23.926,20.02,32.715
1635968541,84.473,32.715,24.902,10.742,21.484
1635968541,43.457,30.273,24.902,15.137,56.641
1635968541,-26.367,34.668,27.832,21.973,20.996
1635968541,-7.324,40.527,33.203,20.02,-4.883
1635968541,68.359,37.598,31.25,13.184,47.852
1635968541,61.523,35.156,23.438,8.301,82.52
1635968541,-18.555,42.969,22.461,18.066,49.316
1635968541,-25.879,41.016,28.32,17.578,0.977
1635968541,41.016,32.227,29.785,1.465,-2.93
1635968541,71.289,32.715,27.344,-2.441,51.758
1635968541,-13.672,31.25,25.391,11.23,49.316
1635968541,-45.41,29.297,25.391,14.16,11.719
1635968541,13.184,26.855,29.785,6.836,7.324
1635968541,77.148,27.344,21.973,0.488,17.578
1635968541,16.602,35.156,23.926,9.277,36.621
1635968541,-36.621,36.621,35.156,18.066,76.172
1635968541,13.184,28.809,31.25,16.602,52.246
1635968541,87.891,30.273,33.691,7.324,9.277
1635968541,41.504,27.344,32.715,5.371,1.953
1635968541,-29.785,24.902,20.996,17.09,-2.93
1635968541,-20.02,26.367,18.555,20.02,29.785
1635968541,48.828,24.902,21.973,8.301,74.219
1635968541,60.547,28.32,24.414,5.371,8.301
1635968541,-19.531,33.203,29.297,18.555,15.625
1635968541,-35.156,33.691,24.414,21.484,17.578
1635968541,32.715,31.738,20.996,6.348,-4.395
1635968541,65.918,32.227,26.855,-6.836,22.461
1635968541,-6.348,29.297,26.855,7.812,11.719
1635968541,-33.203,28.809,24.902,21.484,6.836
1635968541,15.625,35.645,26.367,12.207,17.578
1635968541,79.102,40.039,29.785,3.906,17.578
1635968541,27.832,33.203,24.902,16.113,16.602
1635968541,-29.297,22.949,29.785,28.809,22.949
1635968541,-1.953,27.344,34.668,23.438,20.508
1635968541,76.66,33.203,27.832,12.207,13.672
1635968541,64.453,39.551,28.809,16.602,1.465
1635968541,-15.625,41.016,34.18,25.879,18.555
1635968541,-22.461,32.715,31.738,22.461,66.895
1635968541,53.711,27.832,32.227,10.742,48.34
1635968541,72.754,25.391,32.715,6.348,7.324
1635968541,-10.254,22.949,30.273,12.695,16.113
1635968541,-26.855,24.902,30.762,12.207,37.598
1635968542,39.062,29.297,33.203,8.789,12.695
1635968542,87.891,35.645,37.598,10.742,5.371
1635968542,17.09,35.156,34.668,21.484,65.918
1635968542,-31.25,30.273,33.203,26.367,63.477
1635968542,16.113,31.25,34.18,19.043,19.531
1635968542,83.984,31.25,30.273,7.812,25.879
1635968542,33.203,32.227,25.879,11.23,14.16
1635968542,-24.902,40.527,24.902,28.32,-9.277
1635968542,2.441,40.039,32.715,27.832,15.625
1635968542,75.684,36.133,34.668,12.207,21.973
1635968542,69.336,40.039,31.738,16.113,42.48
1635968542,-1.465,40.039,26.855,29.297,32.227
1635968542,-12.207,34.18,27.344,32.715,10.254
1635968542,48.828,30.762,36.621,24.902,43.457
1635968542,73.242,32.227,37.598,15.137,41.992
1635968542,-5.859,34.668,34.668,23.438,58.594
1635968542,-32.227,35.156,35.156,27.832,50.293
1635968542,17.09,32.715,30.273,19.043,24.414
1635968542,64.941,33.203,24.902,4.395,53.223
1635968542,5.371,37.598,25.391,14.16,34.18
1635968542,-47.852,33.691,25.879,21.973,53.223
1635968542,-14.16,28.809,31.738,9.277,55.664
1635968542,65.918,31.25,31.738,-2.93,-4.395
1635968542,37.598,28.32,25.391,1.465,12.695
1635968542,-32.715,24.902,25.879,12.695,60.059
1635968542,-16.113,27.344,26.855,15.625,27.832
1635968542,62.988,29.785,30.273,4.883,6.836
1635968542,62.988,39.062,34.668,0.977,-19.043
1635968542,-21.973,42.969,36.133,10.742,-10.742
1635968542,-32.227,31.738,29.785,13.184,9.277
1635968542,40.039,28.809,25.391,10.254,42.969
1635968542,74.707,30.273,25.879,4.883,41.504
1635968542,1.953,27.344,25.391,14.16,-8.789
1635968542,-29.785,31.738,29.297,20.508,52.246
1635968542,21.484,36.133,26.367,15.625,62.012
1635968542,86.914,34.18,22.461,8.789,47.852
1635968542,27.832,35.645,30.273,17.09,49.316
1635968542,-30.273,31.25,32.227,22.461,-15.137
1635968542,0.977,28.809,31.25,14.648,9.277
1635968542,68.848,35.156,27.344,0.977,52.246
1635968542,40.527,29.785,24.902,0,34.18
1635968542,-31.25,33.203,35.156,17.578,33.691
1635968542,-23.926,40.039,34.668,23.438,13.672
1635968542,51.758,44.434,24.414,10.254,-13.184
1635968542,60.547,39.062,23.438,5.371,9.766
1635968542,-21.973,27.344,25.879,12.695,68.848
1635968542,-31.25,28.32,20.508,16.113,50.293
1635968542,32.227,33.203,23.438,3.418,33.203
1635968542,68.848,33.203,31.738,-4.395,32.227
1635968542,0.488,26.367,33.203,9.277,24.902
1635968542,-33.203,25.879,38.086,20.996,0.488
1635968542,20.508,34.668,39.062,23.438,10.254
1635968542,89.355,36.133,37.598,12.695,16.113
1635968542,32.227,26.367,35.156,14.16,4.395
1635968542,-32.227,20.996,31.25,25.879,18.555
1635968542,-4.395,26.367,29.297,26.855,15.625
1635968542,73.242,29.297,33.691,13.184,-3.418
1635968542,61.523,30.273,35.645,11.23,6.348
1635968542,-11.719,29.297,34.668,28.809,34.18
1635968542,-6.348,26.855,31.738,27.832,49.316
1635968542,60.059,32.227,26.855,14.16,59.57
1635968542,75.195,37.109,21.484,10.254,43.457
1635968542,-1.953,32.715,24.414,13.184,36.621
1635968542,-26.367,25.391,29.785,11.23,52.734
1635968542,32.227,24.902,28.32,1.953,55.664
1635968542,83.496,33.203,27.832,-5.371,68.359
1635968542,20.508,31.738,30.273,5.859,41.992
1635968542,-26.855,29.785,31.25,16.602,33.203
1635968542,3.418,29.785,29.297,15.625,40.039
1635968542,71.289,25.879,26.367,5.371,45.898
1635968542,35.156,22.949,29.785,10.254,24.902
1635968542,-36.133,17.578,30.762,19.531,-17.578
1635968542,-18.066,22.461,30.762,15.625,5.371
1635968542,62.012,26.855,26.855,7.324,47.363
1635968542,58.594,27.344,20.508,7.324,67.871
1635968542,-22.461,23.926,29.785,13.672,34.668
1635968542,-29.297,23.438,33.203,19.043,-8.301
1635968542,40.039,32.715,27.832,13.672,24.902
1635968542,69.336,25.391,21.973,8.301,46.875
1635968542,6.348,22.949,24.414,23.926,35.645
1635968542,-24.902,29.297,27.832,27.832,31.25
1635968542,21.484,28.809,26.855,17.578,15.625
1635968542,86.426,30.273,28.809,8.301,19.043
1635968542,25.879,32.715,30.273,16.602,15.625
1635968542,-37.109,33.691,26.855,21.973,15.625
1635968542,-4.395,28.809,25.879,14.648,31.738
1635968542,70.312,22.461,23.926,6.348,29.297
1635968542,40.527,20.02,23.438,9.766,27.832
1635968542,-25.879,24.902,29.785,19.531,40.527
1635968542,-15.137,27.832,32.715,21.973,52.246
1635968542,58.105,29.297,30.273,11.719,10.254
1635968542,63.965,34.18,27.344,6.348,6.348
1635968542,-17.09,30.762,28.809,15.625,25.391
1635968542,-31.25,32.227,34.668,22.949,23.438
1635968542,36.133,29.785,35.645,12.207,72.754
1635968542,73.242,26.855,31.738,-0.488,40.039
1635968542,-0.488,28.32,29.297,11.719,6.348
1635968542,-34.18,28.32,28.32,20.508,15.625
1635968542,13.672,34.18,27.832,18.555,-5.859
1635968542,79.59,36.621,33.691,14.16,3.418
1635968542,25.391,26.855,36.133,17.578,30.273
1635968542,-46.875,23.438,29.785,18.555,14.648
1635968542,-21.973,25.391,31.738,17.09,-20.996
1635968542,61.035,30.762,33.691,13.184,-18.066
1635968542,43.457,31.738,25.391,11.23,-34.668
1635968542,-26.367,27.832,23.438,19.043,-49.805
1635968542,-18.066,34.18,34.18,22.461,-9.277
1635968542,56.641,36.133,29.297,9.277,37.598
1635968542,76.66,32.715,22.461,8.789,45.41
1635968542,-1.465,33.203,28.809,25.879,14.648
1635968542,-18.555,30.762,29.297,24.414,49.805
1635968542,37.598,29.297,30.762,17.578,79.102
1635968542,82.52,30.273,34.668,13.672,54.688
1635968542,16.602,27.344,32.715,25.879,31.738
1635968542,-33.203,28.32,29.785,32.715,20.996
1635968542,8.301,29.785,29.297,25.391,26.855
1635968542,83.496,31.738,29.297,19.043,42.969
1635968542,45.898,35.645,30.762,25.879,41.992
1635968542,-19.043,32.227,27.832,38.086,-5.859
1635968542,3.906,29.297,28.809,36.621,-0.977
1635968542,83.008,35.645,32.715,24.902,20.02
1635968542,72.754,29.297,26.367,21.973,9.766
1635968542,-3.906,23.926,23.926,25.879,10.742
1635968542,-15.137,29.785,26.855,26.367,-6.836
1635968542,43.457,34.18,26.855,16.113,16.113
1635968542,68.359,33.691,26.367,9.766,41.016
1635968542,-10.254,27.832,29.785,22.461,12.207
1635968542,-41.504,27.344,31.738,26.855,21.973
1635968542,19.531,27.344,29.785,17.578,16.113
1635968542,86.426,29.785,31.738,8.301,12.695
1635968542,25.879,31.25,33.691,17.578,48.828
1635968542,-30.762,26.367,31.738,21.973,24.414
1635968542,3.418,26.855,20.508,19.531,15.625
1635968542,80.078,28.32,19.531,8.789,15.625
1635968542,44.922,29.785,35.156,10.254,21.484
1635968542,-26.855,31.738,34.18,15.625,52.246
1635968542,-13.672,30.762,26.855,7.324,28.809
1635968542,60.059,34.18,23.926,0.488,26.367
1635968542,57.617,28.809,22.461,-1.953,33.203
1635968542,-29.297,22.949,25.879,3.418,14.648
1635968542,-37.109,28.809,30.762,7.812,14.16
1635968542,35.645,27.344,32.715,6.836,-17.09
1635968542,67.383,31.25,24.414,-2.93,-1.465
1635968542,-6.836,38.574,21.484,0,14.16
1635968542,-32.715,32.715,24.414,7.324,-24.902
1635968542,19.531,28.809,23.438,2.441,8.789
1635968542,75.195,31.25,20.996,-5.371,39.551
1635968542,21.484,32.715,23.438,4.395,46.875
1635968542,-34.668,34.18,25.391,19.043,51.758
1635968542,-11.719,33.203,29.785,19.531,49.805
1635968542,65.918,32.227,29.785,15.137,52.734
1635968542,48.828,34.668,26.855,17.09,22.949
1635968542,-34.18,35.156,31.25,16.602,3.906
1635968542,-32.715,27.832,24.902,2.93,2.441
1635968542,50.293,25.879,20.996,-4.395,2.93
1635968542,62.5,24.414,29.297,1.953,8.789
1635968542,-25.391,23.438,30.273,14.648,28.809
1635968542,-37.598,27.344,25.391,20.508,18.066
1635968542,34.18,27.832,26.855,11.719,15.625
1635968542,75.684,30.273,21.484,-0.488,31.738
1635968542,4.395,31.738,20.02,8.301,-12.695
1635968542,-40.527,27.344,28.32,12.695,11.719
1635968542,4.883,22.461,29.297,15.625,72.266
1635968542,79.59,22.949,21.484,11.23,51.758
1635968542,37.598,25.879,29.785,15.137,22.461
1635968542,-21.484,27.344,37.598,22.461,13.672
1635968542,0,26.367,28.32,14.16,28.32
1635968542,72.754,26.855,25.879,2.93,11.719
1635968542,59.082,24.902,29.297,7.812,0
1635968542,-18.555,25.391,26.855,24.414,23.438
1635968542,-21.484,27.344,26.855,25.879,30.273
1635968542,45.898,27.344,28.809,8.789,7.324
1635968542,66.895,25.391,30.273,7.812,-13.184
1635968542,-16.113,27.344,33.203,21.484,21.484
1635968542,-41.016,26.855,32.227,20.02,27.344
1635968542,20.02,20.508,35.156,16.113,23.438
1635968542,74.707,23.926,35.645,6.348,45.898
1635968542,11.23,21.973,35.645,9.277,62.012
1635968542,-33.691,28.32,40.039,22.949,16.602
1635968542,8.789,37.109,41.016,20.508,-8.301
1635968542,75.684,30.762,35.156,4.395,3.418
1635968542,38.086,27.832,29.785,6.348,10.254
1635968542,-28.809,32.227,28.809,13.672,22.461
1635968542,-16.602,31.25,33.691,12.207,-5.859
1635968542,63.477,27.832,34.18,0.977,-10.254
1635968542,63.965,30.273,32.715,4.395,30.273
1635968542,-19.043,32.715,29.785,16.113,70.312
1635968542,-19.043,28.32,33.691,19.043,62.012
1635968542,50.293,30.762,38.086,17.09,33.691
1635968542,68.359,28.809,34.18,9.766,39.551
1635968542,-12.207,26.855,33.691,16.113,34.18
1635968542,-41.504,28.809,29.297,21.484,5.859
1635968542,18.066,27.832,25.879,20.02,10.254
1635968542,83.984,27.832,29.785,9.766,0.977
1635968542,28.809,27.344,26.367,12.695,25.391
1635968542,-22.461,32.715,20.02,23.438,41.992
1635968542,5.859,36.621,24.902,18.555,47.852
1635968542,79.102,36.133,28.32,6.836,40.039
1635968542,50.293,37.109,29.785,11.719,2.441
1635968542,-26.367,31.25,33.203,19.043,29.297
1635968542,-17.578,26.367,37.109,23.926,21.973
1635968542,53.711,26.367,35.156,11.23,7.812
1635968542,58.594,26.855,27.344,4.883,23.926
1635968542,-22.949,30.273,22.949,20.996,34.668
1635968542,-29.785,34.18,24.902,21.484,58.105
1635968542,39.551,32.715,26.855,10.254,43.945
1635968542,76.66,29.297,23.926,2.93,39.551
1635968542,7.812,27.832,27.832,16.602,39.551
1635968542,-39.062,27.832,28.809,18.066,42.48
1635968542,4.395,30.273,16.113,8.301,60.059
1635968542,77.637,31.738,20.508,0.488,31.738
1635968542,24.414,31.25,30.273,7.324,11.23
1635968542,-34.18,38.086,27.344,18.555,24.902
1635968542,-0.488,41.992,27.344,19.043,33.203
1635968542,80.566,34.18,26.855,12.695,16.602
1635968542,57.617,28.809,23.438,13.672,19.043
1635968542,-21.973,28.32,27.344,23.438,6.836
1635968542,-20.508,27.832,32.227,24.902,31.25
1635968542,57.617,27.832,29.785,15.625,73.242
1635968542,80.566,30.762,30.273,14.16,15.137
1635968542,0.488,36.133,32.227,20.996,-10.742
1635968542,-17.578,38.086,30.762,22.949,29.297
1635968542,41.992,32.715,33.203,19.043,17.578
1635968542,84.961,29.785,29.297,10.254,11.719
1635968542,12.695,29.297,27.344,18.555,17.578
1635968542,-34.18,28.32,35.156,24.902,0.977
1635968542,7.812,30.273,30.273,13.672,25.879
1635968542,73.73,34.18,29.297,9.277,43.945
1635968542,30.273,33.203,29.785,20.508,46.387
1635968542,-39.062,28.32,23.926,21.484,38.574
1635968542,-23.438,30.762,24.902,15.625,8.301
1635968542,55.176,30.273,26.367,10.742,16.113
1635968542,46.875,21.973,28.32,8.301,62.012
1635968542,-30.273,24.902,28.809,16.113,60.547
1635968542,-28.32,30.273,22.949,19.043,13.672
1635968542,45.898,32.715,25.391,13.184,12.695
1635968542,70.312,39.062,33.691,9.277,32.715
1635968542,-8.789,34.668,40.527,24.902,56.641
1635968542,-39.062,22.461,36.621,31.738,65.43
1635968542,17.578,25.391,26.855,19.531,40.527
1635968542,75.195,30.762,26.367,11.23,11.23
1635968542,15.137,32.227,25.391,21.973,4.883
1635968542,-32.715,34.18,29.785,29.785,0
1635968542,2.441,31.738,35.645,20.508,14.648
1635968542,71.289,26.367,26.855,6.348,18.066
1635968542,37.598,30.273,28.809,9.766,24.902
1635968542,-28.809,28.32,33.203,19.531,22.949
1635968542,-11.23,22.949,32.715,23.438,-0.977
1635968542,65.918,30.762,36.133,9.766,9.277
1635968542,69.336,36.133,32.227,6.836,42.48
1635968542,-18.555,36.133,29.297,21.973,19.043
1635968542,-23.438,29.785,23.438,20.508,5.371
1635968542,50.781,28.809,24.414,14.16,39.551
1635968542,75.195,34.668,27.344,7.324,9.766
1635968542,0.488,34.18,25.879,14.16,-21.484
1635968543,-28.32,30.273,24.414,27.344,15.137
1635968543,25.879,34.668,26.367,17.09,41.016
1635968543,83.496,36.621,27.344,-0.977,13.672
1635968543,24.414,28.32,18.066,-0.977,-14.648
1635968543,-30.762,21.973,15.625,6.836,13.672
1635968543,-1.953,21.484,26.367,8.301,16.113
1635968543,71.777,24.414,32.715,2.441,22.949
1635968543,48.828,25.879,32.715,4.883,61.523
1635968543,-27.344,32.227,26.367,17.09,65.43
1635968543,-21.973,34.18,22.461,19.043,8.301
1635968543,52.734,27.832,27.344,6.836,40.039
1635968543,59.57,26.367,28.809,-0.977,68.359
1635968543,-19.531,30.273,26.367,12.207,-8.789
1635968543,-32.715,33.691,25.879,18.066,13.184
1635968543,29.785,35.645,29.785,11.23,40.527
1635968543,81.055,34.18,25.391,5.859,53.223
1635968543,14.648,30.762,27.344,17.578,23.438
1635968543,-23.926,31.25,33.691,23.438,-0.488
1635968543,23.926,31.25,30.762,14.648,37.598
