timestamps,TP9,AF7,AF8,TP10,Right AUX
1635969078.539,69.824,39.551,38.086,40.039,104.492
1635969078.543,93.750,35.156,26.367,27.832,18.066
1635969078.547,-5.371,32.227,40.527,27.344,-9.766
1635969078.551,-28.809,36.621,44.922,27.344,-15.137
1635969078.555,32.715,45.898,38.574,13.184,35.156
1635969078.559,90.332,49.316,32.715,5.859,52.246
1635969078.563,10.742,46.875,44.434,11.230,26.367
1635969078.566,-57.129,49.316,57.617,5.859,26.855
1635969078.570,-16.113,54.688,53.223,-12.207,15.137
1635969078.574,72.754,63.477,45.410,-27.832,-3.906
1635969078.578,13.672,70.801,53.223,-20.508,12.207
1635969078.582,-87.891,76.172,61.523,-27.344,22.949
1635969078.583,27.344,70.312,62.500,-41.016,21.973
1635969078.587,-3.906,77.148,57.617,-59.082,35.156
1635969078.591,-109.863,82.520,58.105,-63.477,59.570
1635969078.595,-108.398,80.078,65.918,-62.500,54.199
1635969078.599,-35.645,80.566,65.918,-75.684,35.645
1635969078.603,-11.719,78.613,60.547,-87.891,46.875
1635969078.606,-107.910,79.102,72.266,-85.938,34.180
1635969078.610,-143.066,86.426,67.383,-84.961,46.875
1635969078.614,-82.031,92.285,61.523,-88.379,35.645
1635969078.618,-16.113,94.238,66.895,-99.609,19.043
1635969078.622,-98.633,92.773,71.289,-100.586,51.758
1635969078.634,-162.109,92.773,70.312,-94.238,38.574
1635969078.638,-111.328,94.238,67.383,-88.379,7.812
1635969078.642,-16.602,90.332,65.918,-87.402,33.203
1635969078.646,-48.340,84.473,67.871,-73.730,26.855
1635969078.650,-127.441,77.637,77.637,-60.059,8.789
1635969078.654,-96.191,68.359,68.848,-52.246,-9.766
1635969078.658,5.371,63.965,49.805,-44.922,-1.953
1635969078.661,11.230,60.059,52.734,-41.016,25.391
1635969078.665,-73.242,52.246,57.129,-20.020,3.906
1635969078.669,-65.918,46.387,59.082,-3.906,-1.953
1635969078.673,19.043,38.574,48.340,-7.324,42.480
1635969078.677,73.242,29.785,38.574,0.488,43.457
1635969078.671,-5.371,28.809,46.387,19.043,2.441
1635969078.675,-44.922,21.973,44.922,25.391,-30.273
1635969078.679,24.414,12.207,35.156,28.320,4.395
1635969078.683,110.840,11.230,20.020,26.855,77.148
1635969078.687,51.270,5.371,22.949,36.133,11.230
1635969078.691,-7.812,-0.977,35.156,55.176,21.973
1635969078.695,34.180,0.000,28.809,64.453,81.543
1635969078.698,130.859,0.977,22.461,66.895,81.543
1635969078.702,102.539,0.488,19.043,66.895,40.039
1635969078.706,2.930,0.488,20.020,70.801,0.000
1635969078.710,12.207,0.488,28.320,78.125,24.902
1635969078.714,107.910,-1.465,22.461,74.707,40.039
1635969078.728,126.465,-4.883,17.578,75.195,75.195
1635969078.732,29.785,-4.883,20.508,83.984,48.340
1635969078.736,16.113,-0.977,25.879,82.520,21.973
1635969078.740,94.238,-0.977,22.949,76.660,56.152
1635969078.744,154.785,-0.488,15.625,75.195,22.461
1635969078.748,75.684,-2.930,20.508,84.961,17.578
1635969078.752,28.809,-5.371,19.531,85.938,33.691
1635969078.755,85.938,0.488,19.043,78.125,29.297
1635969078.759,168.457,1.953,17.090,70.801,17.578
1635969078.763,109.863,2.930,18.555,73.242,-19.043
1635969078.767,33.691,4.395,13.184,78.613,1.953
1635969078.771,62.988,5.859,13.672,75.195,49.805
1635969078.764,153.809,7.324,23.926,73.242,29.785
1635969078.768,139.160,5.371,22.461,78.125,20.020
1635969078.772,42.480,3.906,24.902,83.008,35.156
1635969078.776,40.527,3.418,25.879,77.637,7.812
1635969078.780,128.906,3.418,18.555,71.777,-15.625
1635969078.784,156.250,4.883,17.578,75.195,5.371
1635969078.788,53.711,9.277,27.832,83.984,15.625
1635969078.791,27.344,11.230,31.250,86.914,-19.043
1635969078.795,96.191,11.230,21.973,76.172,19.043
1635969078.799,147.949,12.695,15.137,64.941,84.473
1635969078.803,63.965,17.090,20.996,66.895,41.016
1635969078.807,6.836,18.555,28.320,62.012,7.324
1635969078.839,51.270,10.742,23.926,58.594,6.836
1635969078.843,140.625,7.812,7.324,58.105,37.598
1635969078.847,99.121,13.184,23.438,57.617,64.453
1635969078.851,16.113,11.719,40.039,64.453,19.043
1635969078.855,35.156,12.695,36.621,65.918,-6.348
1635969078.859,119.629,12.695,23.438,54.199,26.367
1635969078.863,108.398,9.766,15.625,53.711,71.777
1635969078.866,10.742,14.648,29.785,58.594,81.055
1635969078.870,6.836,20.508,29.297,60.059,14.648
1635969078.874,93.750,16.113,19.531,58.594,40.527
1635969078.878,124.512,15.625,17.090,54.199,50.781
1635969078.882,28.320,18.555,24.414,50.293,50.293
1635969078.860,-1.465,18.555,27.344,53.711,60.059
1635969078.864,62.012,18.066,21.484,55.664,-5.371
1635969078.868,135.742,18.555,13.184,52.246,4.395
1635969078.872,53.711,17.578,10.742,52.734,9.766
1635969078.876,-12.695,19.043,30.273,51.270,62.012
1635969078.880,32.227,20.996,32.715,50.781,83.008
1635969078.884,115.234,20.020,20.996,40.039,43.945
1635969078.887,79.590,22.461,25.391,37.598,18.066
1635969078.891,-13.672,22.461,30.273,46.387,-1.465
1635969078.895,0.488,18.555,33.203,42.480,31.250
1635969078.899,89.355,16.602,22.461,32.227,40.527
1635969078.903,93.262,19.043,17.090,27.832,14.160
1635969078.915,-5.371,16.602,24.902,24.414,-0.488
1635969078.919,-28.320,14.160,18.066,21.484,-5.371
1635969078.923,46.875,19.531,14.648,24.414,39.062
1635969078.927,95.215,22.949,19.043,22.461,63.477
1635969078.931,5.859,21.973,26.855,28.320,46.387
1635969078.935,-41.016,21.973,26.855,34.180,65.918
1635969078.939,14.160,22.461,15.625,24.902,85.938
1635969078.942,104.004,28.320,19.043,25.879,40.039
1635969078.946,43.945,29.785,32.227,27.832,43.457
1635969078.950,-27.832,26.367,32.227,28.320,49.805
1635969078.954,4.395,28.320,19.531,31.250,25.879
1635969078.958,88.379,25.391,10.254,19.531,52.246
1635969078.970,74.707,25.879,19.531,25.879,16.113
1635969078.974,-11.719,30.273,32.227,34.668,-12.207
1635969078.978,-9.766,29.785,36.621,32.227,9.277
1635969078.982,84.961,27.832,34.180,33.691,37.109
1635969078.986,103.516,27.832,35.156,32.227,53.711
1635969078.990,-0.977,31.738,40.039,33.203,4.883
1635969078.994,-23.926,31.738,40.527,33.203,27.832
1635969078.997,43.945,27.832,35.645,30.273,43.457
1635969079.001,102.051,24.414,28.809,26.367,41.504
1635969079.005,22.461,28.809,38.574,31.738,58.594
1635969079.009,-23.438,34.668,49.316,39.551,71.289
1635969079.013,25.879,29.785,40.039,35.645,38.086
1635969079.008,111.328,21.484,27.344,24.902,4.395
1635969079.012,50.293,18.066,27.344,25.879,12.207
1635969079.016,-38.086,22.461,41.992,32.715,22.461
1635969079.020,-13.184,27.344,46.387,33.691,2.930
1635969079.024,83.984,27.832,38.574,26.367,5.371
1635969079.028,72.754,29.785,36.133,25.879,4.395
1635969079.032,-28.809,35.645,35.645,33.691,-11.230
1635969079.035,-26.855,34.668,38.574,34.180,8.301
1635969079.039,57.129,28.809,35.156,29.785,21.484
1635969079.043,87.402,26.367,31.738,24.902,32.715
1635969079.047,-19.043,26.855,33.203,29.297,30.762
1635969079.051,-55.176,27.344,37.598,34.180,24.414
1635969079.046,22.461,29.297,40.039,26.855,-7.324
1635969079.050,92.285,30.273,30.762,19.043,26.367
1635969079.054,16.113,33.203,33.203,24.902,29.785
1635969079.058,-43.457,37.109,35.156,35.645,-22.461
1635969079.062,8.301,34.180,35.156,37.109,-14.160
1635969079.066,108.398,31.250,34.180,31.250,-1.953
1635969079.070,61.035,34.180,35.156,26.855,43.457
1635969079.073,-31.738,32.227,37.109,21.973,45.410
1635969079.077,-22.461,29.785,30.762,21.484,-4.395
1635969079.081,79.102,34.668,26.855,21.973,54.688
1635969079.085,90.820,35.156,27.832,25.879,51.270
1635969079.089,-13.184,31.738,39.551,29.297,34.180
1635969079.102,-30.762,31.738,43.945,28.320,60.059
1635969079.106,46.875,26.855,30.762,22.461,18.066
1635969079.110,101.074,25.879,26.367,20.996,-0.488
1635969079.114,7.812,33.203,31.738,27.832,-34.668
1635969079.118,-34.668,38.086,35.156,28.809,16.113
1635969079.122,25.391,39.551,27.344,26.855,87.402
1635969079.126,94.727,37.109,19.043,20.508,20.020
1635969079.129,26.855,40.527,36.133,27.832,18.555
1635969079.133,-39.551,43.457,43.945,34.180,57.129
1635969079.137,-4.395,37.598,34.668,20.508,66.895
1635969079.141,87.402,34.668,22.461,14.648,97.168
1635969079.145,61.035,35.156,21.973,18.066,20.508
1635969079.140,-34.668,32.227,30.762,20.508,-27.344
1635969079.144,-21.973,31.738,32.227,21.973,-4.395
1635969079.148,79.102,30.762,28.809,22.461,22.461
1635969079.152,88.379,28.320,31.250,19.043,38.086
1635969079.156,-17.090,30.762,42.969,25.391,23.438
1635969079.160,-36.621,30.273,40.527,26.855,-16.602
1635969079.164,42.969,29.297,33.691,20.020,11.719
1635969079.167,96.680,30.762,31.250,20.996,48.340
1635969079.171,3.906,27.832,30.762,25.879,50.781
1635969079.175,-36.621,29.785,30.762,22.949,11.719
1635969079.179,18.555,24.414,27.344,19.531,-26.367
1635969079.183,99.609,20.996,17.090,17.090,7.812
1635969079.196,39.062,27.832,22.949,24.902,24.414
1635969079.200,-41.504,25.879,36.621,33.691,62.500
1635969079.204,-12.207,27.344,36.621,26.855,4.395
1635969079.208,83.008,24.902,25.391,19.531,-46.387
1635969079.212,63.965,21.973,29.785,18.555,45.410
1635969079.216,-32.715,28.320,33.203,26.367,40.527
1635969079.220,-29.297,30.273,30.762,27.344,46.387
1635969079.223,55.176,30.273,30.762,18.555,60.547
1635969079.227,81.543,30.273,26.855,15.625,57.617
1635969079.231,-17.578,31.738,34.180,20.508,56.152
1635969079.235,-46.875,30.273,32.715,27.832,67.383
1635969079.239,24.902,24.414,22.461,19.043,68.359
1635969079.233,91.309,23.926,25.879,10.254,-16.113
1635969079.237,10.254,23.926,37.598,21.973,-13.184
1635969079.241,-42.969,21.484,39.062,24.902,30.762
1635969079.245,5.859,23.438,31.738,22.461,47.852
1635969079.249,98.145,24.902,27.344,23.926,41.016
1635969079.253,46.875,24.902,26.367,26.855,0.000
1635969079.257,-36.133,29.297,32.715,31.738,25.879
1635969079.260,-14.648,30.273,38.574,27.832,50.781
1635969079.264,76.660,25.879,28.320,22.461,35.156
1635969079.268,76.172,27.832,21.973,22.461,14.160
1635969079.272,-20.020,36.133,33.203,20.508,12.207
1635969079.276,-22.461,35.156,43.945,20.996,-35.645
1635969079.289,59.570,29.785,35.156,20.996,4.395
1635969079.293,94.727,29.297,21.484,12.695,42.969
1635969079.297,-6.836,29.785,34.668,14.160,27.832
1635969079.301,-42.969,32.715,40.039,20.508,81.543
1635969079.305,22.949,34.668,26.855,15.625,48.828
1635969079.309,93.262,30.273,16.113,6.836,62.012
1635969079.313,26.855,32.227,24.902,6.836,74.219
1635969079.316,-37.109,31.250,38.574,16.113,2.441
1635969079.320,0.000,27.344,34.180,20.020,-21.484
1635969079.324,101.074,29.785,26.855,13.184,32.227
1635969079.328,57.129,30.762,24.414,14.648,17.578
1635969079.332,-43.945,29.297,26.367,19.043,2.930
1635969079.328,-21.484,28.320,31.738,20.020,26.855
1635969079.332,73.730,26.855,27.832,19.531,49.316
1635969079.336,79.102,27.344,26.367,20.996,3.418
1635969079.340,-21.973,27.832,34.180,27.832,-23.926
1635969079.344,-36.133,31.250,42.969,30.273,34.180
1635969079.348,50.781,31.250,41.504,30.762,13.672
1635969079.352,104.492,26.367,31.738,26.367,9.277
1635969079.355,8.789,24.902,38.086,25.391,6.348
1635969079.359,-34.180,32.227,39.551,29.785,-12.207
1635969079.363,28.809,34.180,36.621,25.391,23.926
1635969079.367,108.887,27.344,32.715,18.066,35.645
1635969079.371,44.922,26.855,40.039,25.391,60.547
1635969079.383,-30.762,26.855,44.922,30.762,41.016
1635969079.387,-3.418,23.926,37.109,29.785,1.953
1635969079.391,91.797,24.902,34.668,24.902,6.348
1635969079.395,65.918,29.785,39.062,30.762,26.367
1635969079.399,-35.156,26.367,45.410,34.180,-0.977
1635969079.403,-30.273,21.484,44.434,30.273,-36.133
1635969079.407,64.453,21.973,28.809,26.855,-3.906
1635969079.410,91.309,28.320,34.180,24.902,39.551
1635969079.414,-10.254,37.109,52.734,32.227,52.246
1635969079.418,-37.598,43.945,48.828,35.156,39.062
1635969079.422,39.551,51.758,30.273,32.227,39.551
1635969079.426,99.121,57.617,27.344,29.297,58.105
1635969079.421,14.160,58.105,43.945,34.668,23.438
1635969079.425,-38.086,57.617,41.504,36.133,-22.949
1635969079.429,15.625,58.594,31.250,29.785,-18.555
1635969079.433,95.215,59.082,19.043,20.020,1.953
1635969079.437,39.551,57.129,20.508,22.949,7.324
1635969079.441,-35.156,52.734,27.832,33.203,31.250
1635969079.445,-8.789,51.270,24.902,29.297,27.344
1635969079.448,84.961,49.316,21.484,21.484,24.902
1635969079.452,69.336,43.457,20.508,23.926,29.297
1635969079.456,-26.855,42.480,29.297,26.855,34.180
1635969079.460,-18.066,45.898,38.086,27.344,47.363
1635969079.464,68.359,44.922,32.715,28.809,31.738
1635969079.477,91.309,35.645,23.438,28.809,3.906
1635969079.481,-5.859,33.691,31.738,30.762,-37.109
1635969079.485,-33.203,36.621,47.852,31.250,-10.254
1635969079.489,35.645,34.180,41.016,27.832,64.941
1635969079.493,103.027,26.367,28.809,21.484,47.363
1635969079.497,23.926,22.461,34.180,24.414,31.250
1635969079.501,-41.016,23.926,36.133,21.484,37.598
1635969079.504,2.441,21.973,39.062,22.461,18.555
1635969079.508,92.773,18.555,35.156,27.832,27.344
1635969079.512,42.969,21.973,29.297,22.461,63.477
1635969079.516,-42.969,22.949,28.809,18.066,128.418
1635969079.520,-20.996,22.461,30.273,22.461,111.816
1635969079.514,76.172,23.438,31.738,17.090,92.285
1635969079.518,74.707,18.555,31.250,4.395,71.289
1635969079.522,-34.668,22.949,39.062,12.695,32.227
1635969079.526,-37.109,29.785,41.016,22.949,2.441
1635969079.530,51.270,24.902,34.668,17.090,21.484
1635969079.534,90.820,21.973,33.203,12.695,24.902
1635969079.538,4.395,26.367,35.156,18.066,-7.812
1635969079.541,-30.273,31.250,39.551,23.438,0.000
1635969079.545,26.367,28.809,39.062,24.902,21.484
1635969079.549,110.352,23.438,33.691,22.461,24.902
1635969079.553,43.945,27.832,48.340,28.809,19.043
1635969079.557,-32.227,28.809,53.711,35.156,31.738
1635969079.571,1.465,25.391,39.551,30.762,29.297
1635969079.575,85.938,25.391,24.414,27.344,6.836
1635969079.579,53.223,30.273,28.809,26.367,5.371
1635969079.583,-36.133,32.227,37.109,28.320,7.812
1635969079.587,-25.879,31.738,38.574,28.809,30.273
1635969079.591,64.453,29.785,31.250,29.297,58.594
1635969079.595,73.242,26.367,28.320,22.949,55.664
1635969079.598,-19.043,26.367,40.039,21.484,47.852
1635969079.602,-28.809,29.297,42.480,33.691,44.434
1635969079.606,39.551,28.809,36.621,32.227,26.367
1635969079.610,94.238,23.926,23.438,25.391,0.977
1635969079.614,1.953,27.344,27.832,28.809,5.859
1635969079.608,-46.875,29.297,43.945,27.832,-0.488
1635969079.612,17.578,22.949,39.551,27.832,-30.762
1635969079.616,106.445,20.996,31.250,27.832,16.113
1635969079.620,39.062,25.391,33.691,25.879,42.480
1635969079.624,-40.039,28.809,41.992,29.785,59.570
1635969079.628,-13.672,23.438,38.574,26.367,27.344
1635969079.632,86.426,26.367,28.809,22.461,-12.207
1635969079.635,79.102,34.668,36.621,27.832,19.043
1635969079.639,-28.320,30.273,37.598,27.344,7.324
1635969079.643,-30.273,27.832,35.156,25.879,10.254
1635969079.647,62.012,30.273,30.762,20.996,-17.090
1635969079.651,88.379,29.297,27.344,23.438,17.578
1635969079.665,-15.137,27.832,39.551,28.809,64.941
1635969079.669,-41.504,30.273,39.551,24.414,62.500
1635969079.673,41.504,33.691,30.273,23.926,36.133
1635969079.677,101.074,34.180,25.879,22.461,18.555
1635969079.681,12.695,40.527,37.598,30.273,13.672
1635969079.685,-41.016,42.480,38.574,33.203,-12.695
1635969079.689,7.324,38.086,29.785,28.809,-5.371
1635969079.692,102.051,38.574,25.879,26.367,-6.348
1635969079.696,55.664,37.598,30.273,29.785,-24.902
1635969079.700,-28.320,34.180,40.039,37.598,31.738
1635969079.704,-6.836,30.273,31.738,33.691,64.941
1635969079.708,87.891,29.785,17.090,23.438,12.207
1635969079.702,83.984,32.227,23.926,24.902,-30.762
1635969079.706,-14.160,27.832,33.203,31.738,-18.066
1635969079.710,-20.020,21.484,34.668,31.250,28.320
1635969079.714,69.336,23.926,33.203,26.367,28.809
1635969079.718,112.305,26.855,27.832,26.367,-10.254
1635969079.722,4.395,23.438,29.297,28.320,27.832
1635969079.726,-36.621,22.949,35.156,23.438,33.203
1635969079.729,34.180,20.996,34.180,19.531,-13.184
1635969079.733,104.004,17.578,22.461,13.184,-20.508
1635969079.737,30.762,22.949,31.738,13.184,23.926
1635969079.741,-32.715,21.484,47.363,18.066,43.945
1635969079.745,7.324,12.207,36.621,17.578,13.672
1635969079.758,102.539,13.184,24.902,17.578,32.715
1635969079.762,55.664,14.160,24.902,18.555,27.344
1635969079.766,-36.621,13.672,35.645,19.531,35.645
1635969079.770,-19.531,16.602,37.598,23.926,14.160
1635969079.774,74.219,18.066,26.855,22.949,47.852
1635969079.778,84.961,20.508,23.438,23.438,81.543
1635969079.782,-19.043,21.484,32.715,24.902,43.457
1635969079.785,-33.691,17.578,38.574,28.809,31.250
1635969079.789,48.828,16.113,34.668,29.297,52.734
1635969079.793,99.121,19.043,27.832,19.043,64.453
1635969079.797,8.789,21.484,26.367,17.578,30.762
1635969079.801,-30.762,27.832,36.133,24.902,31.250
1635969079.799,30.273,28.320,34.180,26.367,19.531
1635969079.803,109.863,20.020,23.438,17.090,-7.324
1635969079.807,41.504,20.996,30.273,22.949,12.695
1635969079.811,-26.367,21.973,36.621,32.715,37.598
1635969079.815,8.301,17.578,35.156,28.320,71.289
1635969079.819,96.191,19.043,27.832,26.367,58.594
1635969079.823,67.383,24.414,28.809,24.902,45.898
1635969079.826,-27.832,23.438,33.691,21.973,97.168
1635969079.830,-28.320,20.020,26.855,22.949,90.820
1635969079.834,54.688,18.555,22.949,19.043,56.152
1635969079.838,77.148,16.602,22.949,14.648,74.707
1635969079.842,-28.320,17.090,27.832,17.090,57.129
1635969079.852,-43.457,20.020,34.180,26.855,-15.137
1635969079.856,30.762,16.113,26.367,16.113,-20.020
1635969079.860,82.520,15.137,14.648,3.906,35.645
1635969079.864,-7.324,19.043,22.949,14.160,59.082
1635969079.868,-59.082,15.137,38.574,19.531,44.434
1635969079.872,0.488,17.578,34.668,19.531,66.406
1635969079.876,92.773,19.043,19.531,14.648,42.969
1635969079.879,38.574,18.555,34.668,21.484,23.926
1635969079.883,-40.039,20.996,44.922,27.344,48.828
1635969079.887,-10.254,18.555,36.621,24.414,23.438
1635969079.891,80.078,14.648,27.344,25.879,22.461
1635969079.895,59.570,14.160,30.273,23.438,37.598
1635969079.889,-35.645,17.090,42.480,24.902,33.203
1635969079.893,-30.273,18.066,42.969,25.391,33.691
1635969079.897,58.594,17.090,41.992,21.484,34.180
1635969079.901,87.402,15.137,42.480,23.438,43.945
1635969079.905,-17.090,18.066,45.410,27.344,41.992
1635969079.909,-46.387,18.555,42.969,26.367,19.531
1635969079.913,34.180,13.672,38.086,20.508,34.668
1635969079.916,99.121,15.625,40.039,18.555,15.625
1635969079.920,13.184,20.996,43.945,20.508,-31.738
1635969079.924,-41.504,23.438,57.129,25.879,38.574
1635969079.928,6.348,20.996,56.152,26.855,86.914
1635969079.932,96.191,20.020,39.062,19.531,42.480
1635969079.946,46.875,22.461,46.387,24.414,-0.488
1635969079.950,-49.805,20.996,54.199,25.879,-1.465
1635969079.954,-25.391,23.438,49.805,22.461,49.805
1635969079.958,77.637,26.367,34.668,18.555,71.289
1635969079.962,79.590,26.855,35.156,21.484,39.551
1635969079.966,-19.531,26.367,45.410,28.809,3.418
1635969079.970,-29.297,26.367,42.480,22.949,42.480
1635969079.973,56.641,29.297,37.109,20.020,45.410
1635969079.977,99.121,37.109,36.133,22.461,44.434
1635969079.981,4.395,38.574,39.551,27.832,16.602
1635969079.985,-39.551,30.762,39.551,28.320,4.395
1635969079.989,21.973,28.320,33.691,24.414,47.852
1635969079.984,110.352,27.344,33.691,20.508,-7.324
1635969079.988,35.156,27.344,36.621,19.531,-31.250
1635969079.992,-45.410,29.785,35.156,23.438,-12.695
1635969079.996,-4.395,29.785,30.273,25.879,18.066
1635969080.000,98.633,29.785,18.555,20.508,40.039
1635969080.004,60.547,30.762,24.414,21.484,50.293
1635969080.008,-35.645,36.133,39.062,28.320,64.453
1635969080.011,-19.531,33.691,37.109,27.832,30.273
1635969080.015,70.312,28.320,17.578,18.066,40.039
1635969080.019,81.543,33.691,16.602,11.230,60.059
1635969080.023,-16.113,37.598,35.645,18.555,53.711
1635969080.027,-34.668,31.250,34.668,21.484,47.852
1635969080.040,43.457,27.344,25.879,14.648,38.086
1635969080.044,99.121,33.203,24.902,11.719,32.227
1635969080.048,12.695,39.062,35.156,21.484,38.086
1635969080.052,-36.621,33.691,36.133,26.367,29.297
1635969080.056,17.090,27.344,30.273,20.020,45.410
1635969080.060,99.609,24.414,24.414,15.137,78.125
1635969080.064,35.156,25.879,28.320,20.996,30.762
1635969080.067,-32.715,31.738,41.504,27.344,8.301
1635969080.071,0.977,31.738,41.992,25.391,25.879
1635969080.075,95.215,27.344,30.762,19.531,2.441
1635969080.079,67.871,26.855,27.832,23.438,6.836
1635969080.083,-33.203,28.809,33.203,31.250,-10.254
1635969080.077,-22.949,32.227,29.785,30.762,4.883
1635969080.081,70.312,30.273,21.484,29.785,0.977
1635969080.085,91.797,27.832,23.926,31.250,-13.184
1635969080.089,-14.648,31.738,29.297,35.645,-7.812
1635969080.093,-36.621,29.785,33.691,33.691,-34.668
1635969080.097,34.668,19.531,27.344,24.414,-27.344
1635969080.101,103.027,22.461,23.926,22.949,29.785
1635969080.104,23.926,27.832,38.086,29.785,72.754
1635969080.108,-32.715,22.461,30.273,32.715,17.090
1635969080.112,18.066,23.438,19.531,31.250,-9.766
1635969080.116,108.887,27.344,22.949,32.715,52.734
1635969080.120,56.641,30.273,31.738,35.156,84.961
1635969080.133,-31.250,28.809,33.203,31.738,71.289
1635969080.137,-8.789,22.461,25.879,31.250,8.789
1635969080.141,90.332,20.508,22.461,28.809,9.766
1635969080.145,76.172,23.438,26.855,27.344,30.273
1635969080.149,-31.738,24.902,37.598,28.809,60.059
1635969080.153,-28.320,27.344,36.133,31.738,41.504
1635969080.157,59.570,22.949,21.973,21.973,10.742
1635969080.160,84.473,24.414,24.902,13.184,12.207
1635969080.164,-18.066,30.273,37.598,22.461,-13.672
1635969080.168,-50.781,24.902,37.109,22.949,52.734
1635969080.172,20.996,21.484,21.973,19.531,60.059
1635969080.176,94.238,22.949,10.254,14.160,5.371
1635969080.171,20.508,29.785,27.832,19.043,19.531
1635969080.175,-43.457,35.645,37.109,29.785,9.277
1635969080.179,2.441,37.109,26.855,28.320,17.578
1635969080.183,96.191,40.039,15.137,18.555,-33.691
1635969080.187,53.223,44.434,21.973,20.996,-37.109
1635969080.191,-38.086,43.945,31.250,26.855,64.941
1635969080.195,-21.973,42.969,30.273,18.066,104.492
1635969080.198,73.730,45.410,21.484,11.230,75.195
1635969080.202,70.801,47.852,10.254,10.742,-20.020
1635969080.206,-32.227,51.270,22.949,22.461,-37.109
1635969080.210,-34.180,52.246,35.645,24.414,-3.418
1635969080.214,50.293,46.387,26.855,17.578,-15.625
1635969080.227,97.656,47.363,20.508,16.602,-18.555
1635969080.231,-0.977,52.246,26.367,17.578,1.465
1635969080.235,-41.992,43.457,30.273,20.508,41.016
1635969080.239,29.297,38.574,26.855,23.438,61.035
1635969080.243,107.910,42.480,32.715,20.508,22.461
1635969080.247,33.203,40.527,41.016,21.973,68.848
1635969080.251,-37.598,36.621,38.574,26.367,78.613
1635969080.254,10.742,36.621,41.016,31.738,5.371
1635969080.258,110.352,39.551,41.992,31.250,17.578
1635969080.262,74.219,40.527,46.387,31.250,41.992
1635969080.266,-25.391,35.156,51.270,33.691,41.992
1635969080.270,-25.391,33.203,45.410,29.785,35.156
1635969080.266,71.289,34.180,43.457,26.855,59.570
1635969080.270,102.051,31.738,46.387,29.297,64.941
1635969080.274,-3.906,31.250,46.875,32.715,28.809
1635969080.278,-31.738,32.227,44.434,34.180,53.711
1635969080.282,53.223,31.250,42.969,26.367,95.215
1635969080.286,114.746,35.645,36.621,24.414,61.523
1635969080.290,22.461,40.039,40.527,33.203,18.555
1635969080.293,-26.367,35.156,46.875,38.086,24.902
1635969080.297,24.902,27.832,33.691,33.691,8.789
1635969080.301,109.375,25.879,25.879,21.973,21.973
1635969080.305,51.758,25.879,35.645,24.902,39.062
1635969080.309,-29.785,26.367,44.922,32.227,12.695
1635969080.322,-3.418,27.832,42.480,27.832,38.574
1635969080.326,91.797,28.809,32.227,24.902,87.402
1635969080.330,69.824,28.809,38.086,24.902,57.129
1635969080.334,-31.738,26.855,43.457,26.855,9.277
1635969080.338,-29.785,27.344,37.598,25.879,-20.996
1635969080.342,55.664,25.391,26.855,18.555,19.043
1635969080.346,86.426,26.367,19.043,13.672,39.551
1635969080.349,-14.160,28.809,32.715,20.020,19.043
1635969080.353,-45.898,30.762,38.086,24.902,23.926
1635969080.357,37.598,35.645,36.621,27.832,55.176
1635969080.361,108.398,29.785,29.785,28.320,86.914
1635969080.365,12.207,28.320,29.785,28.320,52.246
1635969080.358,-42.480,37.598,47.363,39.551,50.293
1635969080.362,16.602,36.621,46.875,41.504,13.184
1635969080.366,104.492,28.320,36.621,30.273,-25.391
1635969080.370,49.805,30.273,40.527,32.715,8.789
1635969080.374,-40.527,34.668,49.316,38.086,49.316
1635969080.378,-20.020,29.785,40.527,31.250,11.230
1635969080.382,79.590,27.344,24.902,29.785,15.137
1635969080.385,83.008,37.109,32.227,38.086,26.855
1635969080.389,-35.156,29.297,35.156,24.902,6.836
1635969080.393,-45.410,24.414,38.086,19.531,49.316
1635969080.397,52.734,30.273,38.086,24.902,51.758
1635969080.401,83.496,23.438,26.367,15.625,-37.598
1635969080.415,-8.789,24.902,35.645,18.555,-48.828
1635969080.419,-37.598,27.344,40.527,28.809,8.301
1635969080.423,28.320,29.785,34.668,27.832,35.156
1635969080.427,107.910,36.133,28.320,21.484,72.266
1635969080.431,37.109,37.598,31.738,30.762,60.059
1635969080.435,-34.668,28.320,30.273,33.691,16.113
1635969080.439,-0.488,24.414,25.391,26.855,33.691
1635969080.442,102.051,25.391,27.344,23.438,47.363
1635969080.446,66.895,32.715,37.109,26.367,17.090
1635969080.450,-26.855,38.086,50.293,33.691,24.414
1635969080.454,-15.625,33.203,46.387,36.621,67.383
1635969080.458,80.078,31.250,30.762,29.297,50.293
1635969080.470,95.703,39.062,28.320,26.855,-11.719
1635969080.474,-6.348,41.504,41.992,35.645,-14.160
1635969080.478,-27.344,39.062,46.875,33.203,41.504
1635969080.482,52.246,54.199,31.738,24.902,3.906
1635969080.486,110.352,61.035,29.785,26.855,-8.301
1635969080.490,16.602,53.711,40.527,34.668,-5.859
1635969080.494,-33.691,52.734,40.039,33.203,-20.020
1635969080.497,32.715,55.664,39.551,33.691,71.777
1635969080.501,120.117,47.363,28.320,30.273,94.238
1635969080.505,49.316,46.875,30.273,29.297,8.789
1635969080.509,-26.367,51.758,46.875,39.551,24.414
1635969080.513,6.348,48.828,46.387,37.109,-9.277
1635969080.508,103.027,41.504,38.574,28.809,-10.742
1635969080.512,72.754,32.715,30.273,25.879,41.016
1635969080.516,-30.762,31.738,35.156,28.809,14.160
1635969080.520,-19.043,32.227,38.086,30.762,15.137
1635969080.524,79.102,23.926,29.297,26.855,27.832
1635969080.528,92.773,16.602,24.414,24.414,15.137
1635969080.532,-11.230,20.508,32.227,27.344,2.441
1635969080.535,-25.391,28.320,43.457,32.227,22.949
1635969080.539,45.898,26.855,33.203,27.832,17.578
1635969080.543,104.004,22.949,22.949,18.555,-3.906
1635969080.547,14.160,22.461,28.320,20.508,-11.230
1635969080.551,-40.527,22.949,29.785,22.461,27.344
1635969080.547,20.020,24.902,38.574,21.973,64.941
1635969080.551,113.770,25.391,35.156,18.555,50.293
1635969080.555,51.758,24.414,33.203,16.113,9.766
1635969080.559,-38.086,25.879,34.180,15.137,13.184
1635969080.563,-4.883,27.832,29.785,12.207,34.668
1635969080.567,95.215,22.461,25.391,10.742,44.922
1635969080.571,78.125,23.926,20.020,17.578,15.137
1635969080.574,-22.949,26.367,25.879,21.973,-16.113
1635969080.578,-28.809,21.484,24.414,17.090,6.836
1635969080.582,59.570,20.508,16.602,13.672,8.301
1635969080.586,100.098,18.555,22.949,14.648,29.785
1635969080.590,-6.348,22.461,33.203,24.902,58.105
1635969080.602,-46.387,20.508,31.250,27.832,14.160
1635969080.606,27.344,19.531,18.066,20.508,7.812
1635969080.610,108.398,24.902,14.648,13.672,7.324
1635969080.614,23.926,24.902,28.809,17.578,27.832
1635969080.618,-47.363,23.438,33.691,21.484,7.812
1635969080.622,-3.418,20.508,29.297,18.555,0.977
1635969080.626,84.473,16.602,18.066,9.766,9.766
1635969080.629,47.363,21.484,27.832,12.207,3.418
1635969080.633,-40.527,25.391,32.227,22.949,43.945
1635969080.637,-29.785,26.367,32.715,20.020,56.641
1635969080.641,65.430,24.902,28.809,11.230,43.945
1635969080.645,70.312,24.414,23.438,6.836,53.711
1635969080.639,-32.227,32.715,37.109,11.230,5.371
1635969080.643,-43.457,32.715,38.086,16.602,-9.277
1635969080.647,49.805,25.391,31.250,20.996,45.898
1635969080.651,91.309,23.926,27.344,18.066,29.297
1635969080.655,-11.230,26.367,32.715,12.695,-8.301
1635969080.659,-46.875,26.367,35.156,22.949,27.344
1635969080.663,24.902,23.438,25.879,21.973,0.000
1635969080.666,104.004,23.438,16.113,9.277,-8.301
1635969080.670,24.414,26.367,15.137,16.602,36.133
1635969080.674,-52.246,31.738,24.902,18.066,26.367
1635969080.678,-4.883,30.273,30.273,17.090,7.324
1635969080.682,95.215,24.902,25.391,12.207,46.387
1635969080.696,60.547,26.855,26.855,11.230,58.105
1635969080.700,-44.434,29.785,28.320,21.484,-2.930
1635969080.704,-31.738,27.832,31.738,20.996,-28.809
1635969080.708,72.754,24.902,31.738,15.625,27.832
1635969080.712,84.961,25.879,29.297,14.648,39.551
1635969080.716,-30.762,22.461,28.809,13.184,-13.672
1635969080.720,-54.199,21.484,26.855,17.090,-4.395
1635969080.723,41.504,30.762,31.738,18.066,42.969
1635969080.727,101.562,32.715,29.785,10.254,76.172
1635969080.731,-23.926,20.020,21.973,-9.277,34.668
1635969080.735,-87.891,12.695,23.438,-17.090,-7.324
1635969080.739,-0.977,24.902,38.574,11.230,10.254
1635969080.734,88.379,28.320,26.367,9.766,47.363
1635969080.738,14.648,28.320,49.316,-2.441,28.809
1635969080.742,-76.172,26.855,76.660,6.836,16.602
1635969080.746,-61.035,13.672,39.062,-10.742,50.781
1635969080.750,18.555,4.395,40.527,-47.363,63.477
1635969080.754,3.906,14.648,57.129,-45.410,63.965
1635969080.758,-105.469,7.324,63.965,-45.898,71.777
1635969080.761,-110.840,-2.930,105.957,-56.641,71.777
1635969080.765,5.371,13.184,103.516,-47.852,6.348
1635969080.769,11.719,7.324,98.145,-63.477,-7.324
1635969080.773,-134.766,-15.625,132.324,-106.445,30.762
1635969080.777,-173.828,-24.414,177.734,-130.371,10.742
1635969080.790,-99.609,-23.926,212.891,-122.559,-51.758
1635969080.794,-34.180,-16.602,200.684,-117.188,-24.902
1635969080.798,-126.465,-16.602,196.777,-121.094,41.992
1635969080.802,-203.125,-25.879,210.938,-139.160,60.059
1635969080.806,-153.809,-25.879,244.141,-146.484,41.992
1635969080.810,-51.758,-29.785,297.363,-144.531,23.926
1635969080.814,-103.027,-36.621,391.602,-144.043,-6.836
1635969080.817,-208.008,-45.410,501.953,-145.508,11.230
1635969080.821,-175.781,-43.945,585.938,-132.324,16.602
1635969080.825,-62.012,-39.062,634.277,-118.652,27.832
1635969080.829,-74.219,-38.086,673.828,-114.746,15.625
1635969080.833,-176.270,-35.645,717.285,-110.840,-33.203
1635969080.827,-159.180,-33.203,747.070,-99.609,-15.137
1635969080.831,-69.824,-34.668,746.582,-103.027,25.879
1635969080.835,-43.945,-34.180,737.793,-109.863,83.496
1635969080.839,-141.113,-37.598,749.512,-96.680,70.312
1635969080.843,-157.227,-27.832,762.207,-78.125,38.086
1635969080.847,-81.543,-33.203,752.441,-88.379,38.086
1635969080.851,-4.883,-40.039,750.977,-91.797,47.852
1635969080.854,-54.199,-13.184,776.855,-41.992,54.199
1635969080.858,-125.488,-14.648,756.348,-33.203,38.574
1635969080.862,-82.520,-24.414,720.703,-52.246,23.926
1635969080.866,21.973,-19.531,718.750,-55.176,47.852
1635969080.870,-20.508,-12.695,717.285,-45.898,-3.418
1635969080.902,-107.422,-15.625,712.891,-37.109,-2.930
1635969080.906,-99.121,-33.203,710.938,-51.758,41.992
1635969080.910,2.930,-29.297,713.867,-51.270,69.336
1635969080.914,2.930,-29.297,714.355,-50.781,70.312
1635969080.918,-118.652,-44.922,728.027,-64.941,33.691
1635969080.922,-104.980,-29.297,721.680,-39.062,29.785
1635969080.926,-0.977,-11.719,699.219,-20.996,84.961
1635969080.929,43.945,-17.090,709.961,-31.250,48.340
1635969080.933,-60.059,-22.949,717.773,-30.762,4.883
1635969080.937,-112.305,-28.320,725.098,-35.645,14.648
1635969080.941,-39.062,-23.438,745.117,-25.879,-13.672
1635969080.945,64.453,-9.766,734.375,-14.648,3.906
1635969080.923,-28.320,-23.926,761.230,-42.969,-0.488
1635969080.927,-117.676,-38.574,793.457,-47.363,-15.137
1635969080.931,-52.734,-20.996,787.598,-20.020,8.301
1635969080.935,50.781,-11.719,786.133,-21.973,7.324
1635969080.939,10.254,-17.090,821.777,-33.203,13.672
1635969080.943,-114.258,-29.297,870.605,-56.641,58.105
1635969080.947,-100.098,-20.996,872.559,-49.316,54.688
1635969080.950,31.738,-2.441,863.281,-12.207,20.508
1635969080.954,53.223,0.000,885.254,-9.766,43.457
1635969080.958,-64.453,0.488,924.805,-10.254,51.758
1635969080.962,-87.402,-8.789,949.219,-12.207,42.969
1635969080.966,-24.902,-26.855,965.332,-36.621,50.781
1635969080.977,45.898,-19.043,986.328,-23.926,27.832
1635969080.981,-31.250,-6.348,-1000.000,1.953,1.465
1635969080.985,-90.820,-10.254,999.023,-5.859,20.996
1635969080.989,-39.062,-20.020,999.023,-20.508,13.184
1635969080.993,57.129,-17.090,999.023,-17.090,1.953
1635969080.997,10.742,-3.906,999.512,2.441,47.852
1635969081.001,-78.125,-1.953,979.492,-5.371,54.199
1635969081.004,-49.805,-6.836,949.219,-21.973,18.555
1635969081.008,63.965,-0.488,896.973,-2.930,42.969
1635969081.012,59.570,10.742,847.656,11.719,87.402
1635969081.016,-69.336,-1.953,815.430,-8.301,63.965
1635969081.020,-82.520,-11.230,772.949,-17.090,51.758
1635969081.034,30.273,4.395,711.426,0.000,24.414
1635969081.038,50.293,0.000,653.320,-3.418,-16.602
1635969081.042,-62.988,-2.441,652.344,-13.184,22.949
1635969081.046,-79.102,11.230,629.395,5.371,16.602
1635969081.050,1.465,10.742,584.473,14.160,-25.391
1635969081.054,77.148,10.742,559.082,11.230,35.645
1635969081.058,-10.742,8.789,546.387,0.977,36.133
1635969081.061,-77.637,5.371,541.504,-3.418,27.832
1635969081.065,-31.250,-1.953,518.066,-3.906,37.598
1635969081.069,78.125,7.324,486.328,3.906,27.344
1635969081.073,52.246,18.066,475.098,12.695,38.086
1635969081.077,-53.223,10.742,465.820,0.977,37.598
1635969081.071,-37.598,12.695,439.941,0.977,31.250
1635969081.075,59.082,12.695,406.250,-2.930,45.410
1635969081.079,62.012,18.066,386.719,-0.977,53.711
1635969081.083,-29.785,25.391,381.836,10.742,23.926
1635969081.087,-31.738,21.973,353.516,14.648,-10.254
1635969081.091,53.711,17.578,311.035,13.184,-9.766
1635969081.095,80.566,9.766,273.926,-0.977,-20.020
1635969081.098,-23.438,5.859,270.020,1.465,-53.711
1635969081.102,-46.875,15.625,235.840,21.973,0.000
1635969081.106,20.020,20.020,196.289,23.926,11.719
1635969081.110,102.051,23.438,172.852,20.996,-10.742
1635969081.114,25.391,22.949,147.461,14.160,50.781
1635969081.127,-75.195,11.719,150.879,-15.625,59.082
1635969081.131,-37.109,11.230,139.648,-7.324,-32.715
1635969081.135,90.820,27.344,126.465,21.973,-10.254
1635969081.139,72.754,43.457,104.492,29.785,23.438
1635969081.143,-31.250,43.945,91.797,28.809,28.320
1635969081.147,-34.668,37.109,103.516,26.367,54.199
1635969081.151,41.992,19.043,92.285,-4.883,23.926
1635969081.154,55.176,11.230,118.652,-25.391,-19.531
1635969081.158,-20.996,28.809,134.277,11.230,4.883
1635969081.162,-27.832,36.621,129.395,25.879,35.645
1635969081.166,42.480,20.508,145.020,3.906,67.871
1635969081.170,106.934,25.391,149.414,1.953,50.293
1635969081.165,2.930,28.320,178.711,0.000,27.344
1635969081.169,-74.219,11.230,198.730,-12.695,54.199
1635969081.173,14.160,31.250,188.965,6.836,29.785
1635969081.177,115.234,39.062,184.570,10.742,31.738
1635969081.181,46.875,38.086,200.684,17.090,45.410
1635969081.185,-36.621,34.180,192.383,18.066,5.371
1635969081.189,-9.277,30.762,194.336,17.090,30.273
1635969081.192,92.773,32.227,180.664,20.508,79.590
1635969081.196,59.570,25.391,163.086,13.672,66.895
1635969081.200,-79.102,1.953,192.383,-23.926,8.789
1635969081.204,-66.406,6.836,213.379,-11.230,-9.766
1635969081.208,75.684,37.109,219.727,41.992,40.527
1635969081.202,91.797,31.738,224.609,23.926,3.418
1635969081.206,-29.785,21.484,240.234,9.277,7.812
1635969081.210,-47.363,28.809,265.625,23.438,18.066
1635969081.214,21.484,24.414,250.000,15.137,-17.090
1635969081.218,78.125,16.113,246.582,-8.789,26.855
1635969081.222,-2.441,22.949,298.340,4.883,18.066
1635969081.226,-53.223,28.809,317.383,18.555,-13.184
1635969081.229,7.324,27.344,314.453,16.602,-4.395
1635969081.233,101.074,24.414,289.551,8.789,-3.418
1635969081.237,22.461,13.184,313.965,-16.113,7.324
1635969081.241,-47.363,25.879,349.121,14.648,19.531
1635969081.245,6.348,36.133,300.781,45.410,0.977
1635969081.260,94.238,24.902,258.301,20.020,66.895
1635969081.264,85.938,30.762,244.141,16.602,80.078
1635969081.268,-24.414,30.273,246.094,14.648,12.695
1635969081.272,-28.320,32.715,232.422,20.020,-5.859
1635969081.276,70.312,38.086,208.008,31.738,15.625
1635969081.280,105.957,29.297,175.781,25.391,35.645
1635969081.284,-5.859,23.438,173.828,13.184,12.695
1635969081.287,-32.715,34.180,178.223,27.832,26.855
1635969081.291,37.109,33.203,134.277,26.855,23.926
1635969081.295,95.703,23.438,119.141,1.465,6.348
1635969081.299,31.738,34.180,99.121,34.180,22.461
1635969081.303,-26.855,42.969,75.684,56.152,-27.832
1635969081.296,0.000,34.180,76.172,25.879,18.066
1635969081.300,104.492,33.203,67.871,27.344,77.148
1635969081.304,74.707,34.180,66.406,37.598,51.270
1635969081.308,-34.668,28.320,70.312,26.855,33.691
1635969081.312,-22.949,29.297,62.988,22.461,30.762
1635969081.316,83.984,31.250,38.574,20.996,46.387
1635969081.320,91.797,32.715,33.691,17.090,61.523
1635969081.323,-20.020,30.273,41.504,12.207,26.855
1635969081.327,-35.645,30.762,31.250,16.602,-17.090
1635969081.331,49.805,32.227,19.531,18.066,-6.348
1635969081.335,112.305,35.156,10.742,18.066,19.531
1635969081.339,-8.301,26.855,9.766,-0.977,55.176
1635969081.352,-56.641,25.879,20.508,2.441,70.312
1635969081.356,33.691,36.133,-10.254,30.762,79.102
1635969081.360,109.863,36.621,-47.363,24.414,53.711
1635969081.364,28.320,37.109,-43.945,23.926,20.508
1635969081.368,-79.590,16.602,-35.156,-9.766,25.879
1635969081.372,-41.016,17.578,-31.250,-9.277,27.832
1635969081.376,107.422,49.805,-59.082,47.852,18.066
1635969081.379,80.566,48.340,-57.617,36.621,-6.836
1635969081.383,-41.016,36.621,-42.480,13.184,-3.418
1635969081.387,-27.832,39.062,-34.180,15.137,10.742
1635969081.391,72.754,39.062,-41.992,18.555,-0.488
1635969081.395,73.730,26.367,-47.852,4.883,-11.230
1635969081.389,-38.086,26.367,-16.113,4.395,5.371
1635969081.393,-59.082,22.949,-10.742,7.324,49.805
1635969081.397,39.551,24.902,-21.973,14.648,14.648
1635969081.401,102.051,26.367,-19.043,10.254,19.043
1635969081.405,3.906,23.438,-10.742,16.602,38.086
1635969081.409,-46.875,19.043,-25.391,22.461,6.836
1635969081.413,0.000,12.695,-22.461,12.207,15.137
1635969081.416,93.262,15.625,-33.691,25.879,9.766
1635969081.420,31.250,13.184,-39.551,20.996,12.207
1635969081.424,-42.969,19.043,-6.348,22.461,50.781
1635969081.428,-1.953,25.879,-18.555,34.180,40.039
1635969081.432,90.332,23.926,-39.551,30.762,40.527
1635969081.446,64.941,18.555,-28.320,21.484,95.215
1635969081.450,-43.945,13.672,-14.648,12.207,67.383
1635969081.454,-12.207,25.391,-12.695,41.016,18.066
1635969081.458,79.102,27.344,-16.602,36.133,32.227
1635969081.462,83.008,26.855,-22.949,6.836,26.855
1635969081.466,-28.809,20.996,-9.277,12.695,8.301
1635969081.470,-61.035,16.113,1.953,14.160,7.812
1635969081.473,15.625,17.578,-10.742,0.977,47.363
1635969081.477,101.074,26.367,-18.066,9.277,43.457
1635969081.481,22.949,34.180,-3.418,26.367,31.250
1635969081.485,-51.758,21.484,-12.695,24.414,70.312
1635969081.489,5.859,20.996,-20.996,30.273,51.270
1635969081.484,91.309,19.043,-27.832,11.230,36.621
1635969081.488,15.625,2.441,-27.832,-12.695,52.246
1635969081.492,-38.086,26.855,-13.672,31.738,39.062
1635969081.496,0.977,37.598,-5.371,41.992,59.082
1635969081.500,99.609,32.715,-14.648,35.645,81.543
1635969081.504,95.215,35.645,-8.301,29.785,56.641
1635969081.508,-29.785,20.508,14.160,11.719,46.387
1635969081.511,-34.180,16.602,24.902,28.320,66.895
1635969081.515,20.996,-2.441,18.555,-7.324,54.688
1635969081.519,58.594,-5.859,29.297,-23.438,38.086
1635969081.523,22.461,39.062,72.266,54.199,43.457
1635969081.527,-2.441,51.270,63.477,70.312,53.711
1635969081.539,19.043,22.461,64.453,15.137,27.344
1635969081.543,81.055,8.789,100.586,-4.883,-24.414
1635969081.547,22.949,17.578,151.367,17.578,28.320
1635969081.551,-53.711,18.066,186.523,21.973,72.754
1635969081.555,-25.879,9.277,222.168,16.113,10.742
1635969081.559,62.012,-5.371,262.695,-1.953,27.344
1635969081.563,22.461,-7.812,339.355,-12.207,43.457
1635969081.566,-71.777,-5.859,426.758,-4.883,-13.184
1635969081.570,-65.918,-10.742,485.840,-10.254,4.883
1635969081.574,44.922,-2.441,533.203,-3.906,26.367
1635969081.578,69.824,6.348,569.824,7.812,42.969
1635969081.582,-52.734,-4.883,590.820,-6.348,62.988
1635969081.577,-73.242,-5.859,620.605,-11.719,44.922
1635969081.581,23.438,6.348,604.492,12.207,-6.348
1635969081.585,83.008,5.859,562.500,5.859,-0.488
1635969081.589,-28.320,-6.836,547.363,-14.160,47.852
1635969081.593,-79.102,-6.836,527.832,-2.930,60.059
1635969081.597,-9.766,-5.371,478.027,-4.883,61.523
1635969081.601,67.871,-7.812,432.617,-28.320,74.219
1635969081.604,30.762,15.137,407.715,3.418,58.594
1635969081.608,-48.828,12.695,348.145,12.207,16.602
1635969081.612,-27.344,5.371,311.523,1.953,-26.367
1635969081.616,66.406,-0.977,275.879,-15.137,12.695
1635969081.620,50.293,6.348,240.234,-10.742,68.848
1635969081.633,-38.086,17.578,218.262,16.113,29.297
1635969081.637,-37.598,16.113,165.039,10.254,-9.766
1635969081.641,49.316,8.301,103.027,-4.395,26.855
1635969081.645,78.613,9.766,75.684,1.953,32.227
1635969081.649,-22.461,15.625,64.453,14.160,26.855
1635969081.653,-53.223,19.043,24.902,17.090,67.871
1635969081.657,35.645,27.344,-33.203,24.414,33.691
1635969081.660,104.004,22.461,-56.152,6.836,36.621
1635969081.664,20.508,25.879,-57.617,13.672,23.926
1635969081.668,-28.809,35.156,-84.961,33.203,-15.625
1635969081.672,15.625,28.320,-122.070,15.137,-12.695
1635969081.676,104.004,28.320,-157.715,-3.418,-9.277
1635969081.689,42.480,21.973,-141.602,2.441,10.254
1635969081.693,-40.527,29.785,-123.047,21.973,-32.715
1635969081.697,17.090,52.734,-145.996,45.898,-11.230
1635969081.701,105.469,43.457,-176.270,43.945,29.785
1635969081.705,75.684,33.203,-179.199,31.738,-0.977
1635969081.709,-21.484,32.715,-171.387,33.203,-21.973
1635969081.713,-33.203,28.320,-163.574,22.461,26.855
1635969081.716,71.777,32.715,-158.203,35.645,35.645
1635969081.720,115.723,42.480,-174.316,42.480,16.602
1635969081.724,-23.926,22.949,-140.137,4.395,5.371
1635969081.728,-20.996,40.527,-125.977,43.457,-1.953
1635969081.732,58.594,49.316,-157.715,50.781,6.836
1635969081.727,96.191,30.273,-147.949,21.484,62.988
1635969081.731,21.973,32.715,-134.277,29.297,46.387
1635969081.735,-38.086,32.715,-106.445,29.297,-8.789
1635969081.739,-10.742,22.949,-86.914,11.230,21.484
1635969081.743,46.875,1.465,-74.707,-30.273,56.152
1635969081.747,37.109,26.367,-55.176,10.742,47.852
1635969081.751,-23.438,49.316,-40.527,54.688,32.715
1635969081.754,-30.762,28.320,-28.809,21.484,16.113
1635969081.758,54.688,14.160,-35.645,-6.348,-10.742
1635969081.762,61.523,16.113,-11.230,0.488,8.789
1635969081.766,-26.367,27.344,22.461,23.438,32.227
1635969081.770,-45.410,28.320,39.062,15.625,34.180
1635969081.764,38.086,21.484,53.711,7.324,48.828
1635969081.768,80.078,10.742,72.266,-8.789,39.551
1635969081.772,-18.555,18.066,96.191,-6.836,-21.484
1635969081.776,-29.785,37.109,65.918,37.109,12.695
1635969081.780,32.227,31.250,48.340,24.414,72.754
1635969081.784,89.844,13.672,62.012,-15.137,59.082
1635969081.788,30.273,20.020,95.215,-1.953,61.035
1635969081.791,-20.996,46.387,137.207,40.527,31.250
1635969081.795,-10.742,33.203,117.676,20.020,19.043
1635969081.799,85.938,27.344,101.074,8.789,55.664
1635969081.803,76.172,39.062,136.230,31.250,65.430
1635969081.807,-21.973,36.621,164.062,33.203,37.109
1635969081.821,-34.180,22.461,159.668,16.602,39.551
1635969081.825,59.082,23.438,157.715,12.695,69.824
1635969081.829,78.125,22.461,187.500,6.836,88.379
1635969081.833,-37.598,12.207,221.680,2.930,9.277
1635969081.837,-41.016,17.578,218.262,16.113,8.789
1635969081.841,41.016,18.555,198.242,7.812,78.125
1635969081.845,89.355,18.555,199.219,2.441,54.199
1635969081.848,8.301,21.973,217.773,16.113,52.734
1635969081.852,-24.902,35.645,199.707,39.062,26.367
1635969081.856,12.695,25.879,170.410,19.531,38.086
1635969081.860,76.660,0.488,161.621,-23.926,61.035
1635969081.864,45.898,22.461,160.156,20.020,31.250
1635969081.858,-22.461,39.551,159.668,49.805,-7.812
1635969081.862,8.789,41.016,148.438,40.039,23.438
1635969081.866,103.027,34.180,134.277,33.691,56.641
1635969081.870,66.406,20.996,116.211,22.461,61.523
1635969081.874,-44.434,20.020,117.676,22.461,44.434
1635969081.878,-39.551,22.461,127.930,23.926,14.160
1635969081.882,50.781,19.531,110.352,10.254,21.973
1635969081.885,89.844,20.020,106.445,14.160,69.336
1635969081.889,-12.695,20.508,113.770,22.461,32.227
1635969081.893,-41.504,27.832,102.539,24.902,-17.090
1635969081.897,49.805,31.738,73.730,33.691,37.109
1635969081.901,118.164,24.414,36.133,27.832,26.855
1635969081.914,0.000,14.648,35.156,-4.395,-3.418
1635969081.918,-53.223,28.809,44.922,12.207,10.742
1635969081.922,32.227,48.340,16.602,49.316,33.203
1635969081.926,120.605,43.945,-5.371,42.480,68.848
1635969081.930,45.410,30.762,-9.277,18.066,0.488
1635969081.934,-58.594,19.043,6.836,9.277,-16.113
1635969081.938,0.977,50.781,13.672,47.852,41.016
1635969081.941,110.352,62.988,-1.953,58.594,37.109
1635969081.945,67.383,33.203,-6.836,14.648,19.043
1635969081.949,-41.992,33.203,-0.977,5.859,32.715
1635969081.953,-18.066,52.734,1.953,43.457,12.695
1635969081.957,66.406,50.293,4.883,35.645,-11.230
1635969081.953,90.332,43.457,4.883,19.531,2.441
1635969081.957,-19.531,39.551,20.508,18.066,29.785
1635969081.961,-48.828,43.945,27.344,24.902,23.926
1635969081.965,-8.301,28.320,3.906,-5.371,-0.488
1635969081.969,63.477,21.973,6.348,-9.277,61.035
1635969081.973,32.715,46.387,20.508,39.062,57.617
1635969081.977,-35.645,52.246,19.531,41.992,-18.555
1635969081.980,-4.395,42.480,26.855,29.785,-12.207
1635969081.984,88.379,35.156,3.418,17.090,-14.160
1635969081.988,33.691,23.926,19.531,-9.277,8.301
1635969081.992,-59.570,17.090,38.574,-6.836,-5.859
1635969081.996,0.488,37.109,19.531,38.086,-39.551
1635969082.008,107.422,45.410,22.949,49.805,2.930
1635969082.012,85.449,29.785,-7.812,20.508,21.484
1635969082.016,-48.828,5.859,25.391,-18.555,58.594
1635969082.020,-25.391,31.250,51.758,29.785,41.504
1635969082.024,84.961,55.664,6.836,66.406,24.902
1635969082.028,95.215,37.109,9.766,29.297,67.871
1635969082.032,-12.207,36.621,36.133,20.508,32.227
1635969082.035,-50.781,42.480,70.312,21.973,-31.250
1635969082.039,4.883,31.250,102.539,16.113,43.945
1635969082.043,84.473,26.855,118.164,9.277,100.098
1635969082.047,-8.789,25.879,149.414,0.488,25.879
1635969082.051,-75.195,29.785,196.777,9.766,30.762
1635969082.046,-0.977,42.480,220.703,33.691,60.059
1635969082.050,87.402,41.504,212.891,24.414,40.039
1635969082.054,56.641,37.109,223.145,17.578,27.344
1635969082.058,-33.691,41.504,235.840,29.785,20.996
1635969082.062,-23.438,41.992,218.750,24.414,31.738
1635969082.066,41.016,19.531,211.914,-12.695,46.387
1635969082.070,76.172,34.668,187.988,11.719,33.691
1635969082.073,17.090,60.547,167.480,59.570,76.172
1635969082.077,-23.438,42.969,149.902,41.992,48.828
1635969082.081,39.551,38.574,119.141,28.320,-17.090
1635969082.085,103.027,40.039,114.258,17.578,41.016
1635969082.089,12.695,36.621,114.258,15.625,18.066
1635969082.103,-35.645,43.457,115.723,32.227,-36.621
1635969082.107,-2.930,26.367,101.562,8.301,30.273
1635969082.111,97.656,30.273,76.172,13.672,37.598
1635969082.115,71.289,54.688,78.613,49.805,17.578
1635969082.119,-27.832,49.805,95.215,32.227,37.598
1635969082.123,-11.719,42.480,73.730,22.949,24.902
1635969082.127,78.125,31.738,53.223,15.625,18.066
1635969082.130,83.496,40.039,66.406,29.297,4.395
1635969082.134,-10.254,44.922,74.707,37.109,-15.137
1635969082.138,-27.344,33.691,66.895,24.414,-12.207
1635969082.142,49.316,27.344,51.270,7.812,-29.785
1635969082.146,86.914,29.297,45.410,4.395,-18.555
1635969082.139,-2.441,42.480,53.711,27.832,26.855
1635969082.143,-9.766,63.477,53.711,55.176,64.941
1635969082.147,55.664,48.828,35.645,38.574,70.312
1635969082.151,109.863,27.832,12.207,25.879,52.246
1635969082.155,27.344,28.320,16.602,33.203,33.691
1635969082.159,-36.621,27.344,25.391,33.203,-23.926
1635969082.163,5.371,24.902,15.137,30.273,46.387
1635969082.166,86.914,19.043,14.160,8.301,80.566
1635969082.170,46.875,21.484,-0.977,3.906,30.273
1635969082.174,-25.879,32.227,-0.488,24.414,43.945
1635969082.178,-0.488,37.109,14.648,37.109,96.191
1635969082.182,85.449,28.320,-19.531,23.926,41.016
1635969082.196,79.590,15.137,-32.715,8.789,-11.719
1635969082.200,-31.250,13.672,-23.926,5.371,19.043
1635969082.204,-52.734,7.324,-11.719,-9.277,15.625
1635969082.208,62.012,21.973,-25.391,20.020,47.363
1635969082.212,121.582,36.133,-55.176,40.039,66.406
1635969082.216,0.977,29.785,-50.293,29.297,30.762
1635969082.220,-51.270,21.973,-56.152,17.090,8.301
1635969082.223,0.488,5.859,-65.918,-13.672,14.160
1635969082.227,100.098,15.625,-59.570,4.395,59.570
1635969082.231,56.641,32.715,-49.316,40.039,57.129
1635969082.235,-31.738,24.414,-46.387,28.809,0.977
1635969082.239,-16.602,12.695,-56.641,7.324,13.184
1635969082.233,73.242,5.859,-75.684,-5.859,20.020
1635969082.237,48.828,11.230,-71.289,8.301,0.000
1635969082.241,-64.941,1.953,-53.223,4.883,22.461
1635969082.245,-55.664,5.371,-34.180,4.883,3.906
1635969082.249,83.496,33.691,-49.316,32.715,28.809
1635969082.253,101.074,33.203,-65.430,32.227,54.688
1635969082.257,-25.391,21.973,-47.852,21.484,21.484
1635969082.260,-48.828,23.926,-30.762,16.113,26.855
1635969082.264,30.273,27.832,-33.203,17.090,62.012
1635969082.268,85.938,23.926,-43.457,8.789,56.152
1635969082.272,5.859,28.809,-17.578,13.184,17.578
1635969082.276,-34.180,36.621,-0.977,26.855,6.836
1635969082.289,-1.465,20.020,-0.977,-3.418,11.719
1635969082.293,84.961,18.066,-16.113,-11.719,37.109
1635969082.297,69.824,49.316,-15.625,38.086,46.875
1635969082.301,-11.230,44.434,-4.395,41.016,47.852
1635969082.305,0.977,30.273,-3.906,11.719,36.133
1635969082.309,70.312,10.742,3.418,-26.367,-2.441
1635969082.313,36.621,3.906,14.160,-23.438,1.953
1635969082.316,-17.090,42.969,23.438,37.598,24.414
1635969082.320,-5.859,47.852,22.461,48.828,17.090
1635969082.324,63.965,29.297,7.324,19.043,28.809
1635969082.328,79.590,16.602,2.441,-5.371,10.254
1635969082.332,-29.785,11.230,34.668,-1.465,10.254
1635969082.346,-53.711,21.484,76.660,12.207,30.273
1635969082.350,36.133,31.250,72.266,15.137,36.133
1635969082.354,102.539,28.809,51.270,10.742,33.691
1635969082.358,-20.020,7.812,62.988,-17.090,47.852
1635969082.362,-72.754,4.395,69.336,-7.324,54.199
1635969082.366,1.953,21.973,48.340,22.949,14.648
1635969082.370,73.730,14.648,57.129,-7.324,12.207
1635969082.373,23.926,17.578,94.238,-4.395,69.824
1635969082.377,-39.551,37.109,51.758,29.297,19.043
1635969082.381,-19.043,36.621,24.902,19.531,-6.836
1635969082.385,47.852,10.742,33.691,-13.672,76.660
1635969082.389,38.574,6.836,49.805,-17.090,76.172
1635969082.383,-20.508,34.668,78.125,25.391,62.988
1635969082.387,-31.738,36.133,67.871,27.832,55.664
1635969082.391,27.344,19.531,44.434,-5.371,-20.508
1635969082.395,68.848,14.648,67.871,-7.812,-16.113
1635969082.399,-20.020,26.367,83.984,19.531,27.832
1635969082.403,-57.129,24.414,64.453,21.484,3.906
1635969082.407,7.324,18.555,59.082,10.742,20.508
1635969082.410,90.332,24.902,62.988,7.324,65.918
1635969082.414,4.883,22.949,65.430,4.395,44.434
1635969082.418,-62.988,21.973,68.359,11.719,3.418
1635969082.422,-7.812,27.344,68.848,20.508,34.668
1635969082.426,86.914,28.809,42.969,16.602,38.574
1635969082.422,42.969,33.691,44.922,9.277,65.918
1635969082.426,-45.410,37.109,53.223,16.602,97.168
1635969082.430,-21.484,44.922,37.109,29.297,64.453
1635969082.434,68.848,43.945,7.812,21.973,41.992
1635969082.438,67.871,36.621,-5.371,13.184,16.602
1635969082.442,-24.902,39.551,18.555,17.578,10.254
1635969082.446,-37.109,38.574,19.531,15.625,12.695
1635969082.449,47.852,39.062,-4.883,20.020,32.715
1635969082.453,112.793,47.363,-30.762,33.203,46.875
1635969082.457,20.508,48.340,-21.484,31.250,22.461
1635969082.461,-18.555,47.852,-4.395,32.715,-5.371
1635969082.465,2.441,27.832,-10.254,-0.977,-0.488
1635969082.477,67.871,14.648,-16.602,-10.742,28.809
1635969082.481,45.410,45.410,-6.348,43.945,57.129
1635969082.485,-21.484,56.641,0.488,54.688,21.484
1635969082.489,4.883,41.504,-12.695,37.598,7.812
1635969082.493,84.473,27.832,-29.785,16.113,33.691
1635969082.497,31.250,11.719,-23.438,-8.301,-1.953
1635969082.501,-55.176,21.484,21.973,10.742,3.906
1635969082.504,-17.578,41.992,17.578,41.016,19.531
1635969082.508,70.312,33.691,-9.766,26.855,25.879
1635969082.512,79.590,24.902,-1.953,14.160,61.035
1635969082.516,-20.020,22.461,5.859,17.090,32.715
1635969082.520,-48.340,13.672,7.812,10.254,56.641
1635969082.534,27.832,10.742,5.859,5.859,49.805
1635969082.538,112.305,29.785,2.441,31.738,32.715
1635969082.542,13.672,30.273,14.648,31.250,27.832
1635969082.546,-58.594,20.020,16.113,17.090,-7.812
1635969082.550,-1.953,19.531,9.766,14.160,36.133
1635969082.554,80.566,15.625,-4.883,2.441,43.945
1635969082.558,49.316,42.969,-4.883,37.598,20.508
1635969082.561,-18.555,61.035,30.273,54.199,46.387
1635969082.565,4.395,59.082,12.207,46.875,48.828
1635969082.569,77.148,44.434,-37.598,13.672,74.219
1635969082.573,19.531,20.996,5.371,-30.273,45.898
1635969082.577,-43.457,43.945,61.523,16.113,58.105
1635969082.571,1.465,63.477,39.551,66.406,57.129
1635969082.575,67.383,48.340,-3.418,37.109,-8.789
1635969082.579,84.473,43.945,6.836,21.484,0.488
1635969082.583,-29.297,30.762,53.223,5.859,7.812
1635969082.587,-57.129,26.367,83.496,14.160,20.508
1635969082.591,41.504,41.504,83.008,39.062,36.133
1635969082.595,120.117,43.945,93.262,22.461,23.926
1635969082.598,32.715,40.527,140.137,24.414,56.641
1635969082.602,-44.434,31.738,150.391,20.508,63.965
1635969082.606,1.465,30.762,147.461,16.602,38.086
1635969082.610,107.422,35.156,166.504,26.855,37.598
1635969082.614,70.801,37.109,159.180,33.203,3.418
1635969082.608,-23.438,43.945,171.387,36.621,10.742
1635969082.612,-5.859,39.551,178.223,30.762,3.906
1635969082.616,93.750,34.180,153.320,17.578,-11.719
1635969082.620,79.102,26.367,147.461,11.719,0.977
1635969082.624,-14.648,28.809,142.578,28.809,-42.969
1635969082.628,-18.066,31.250,141.602,33.691,15.137
1635969082.632,53.223,21.973,119.629,21.484,60.059
1635969082.635,106.445,22.949,105.957,31.738,44.434
1635969082.639,-6.836,17.090,110.840,25.391,46.875
1635969082.643,-45.410,23.438,109.375,27.344,8.789
1635969082.647,38.086,32.227,100.098,40.527,16.113
1635969082.651,101.562,24.414,68.848,26.855,25.391
1635969082.665,16.113,12.207,61.035,2.441,37.598
1635969082.669,-57.129,7.812,78.613,0.977,13.672
1635969082.673,7.812,31.250,70.312,36.621,4.883
1635969082.677,121.582,41.016,40.039,48.340,35.156
1635969082.681,65.430,21.973,40.039,24.414,43.457
1635969082.685,-37.109,16.602,44.434,24.902,78.613
1635969082.689,-16.113,25.391,58.105,40.039,70.801
1635969082.692,69.336,25.879,45.898,21.484,25.391
1635969082.696,92.773,29.297,34.668,20.508,43.945
1635969082.700,-9.277,21.484,50.293,23.926,44.922
1635969082.704,-36.621,13.184,45.898,16.602,25.879
1635969082.708,60.059,24.414,21.973,36.621,20.508
1635969082.703,104.492,20.996,26.367,21.973,9.277
1635969082.707,8.301,28.320,63.965,25.391,52.246
1635969082.711,-19.043,42.480,54.199,53.711,74.707
1635969082.715,29.297,34.668,22.461,37.109,67.383
1635969082.719,100.098,18.555,3.906,16.113,39.551
1635969082.723,37.598,14.160,15.625,21.973,35.645
1635969082.727,-75.684,-4.883,39.062,-7.324,25.879
1635969082.730,-17.090,19.043,43.945,15.137,-19.531
1635969082.734,137.695,57.617,26.367,64.453,14.648
1635969082.738,93.262,41.992,32.715,40.527,25.391
1635969082.742,-24.902,30.762,56.152,31.250,-19.531
1635969082.746,-29.297,26.855,68.848,20.996,-7.812
1635969082.758,46.387,17.090,84.961,0.000,45.410
1635969082.762,91.309,31.250,89.844,24.414,65.430
1635969082.766,1.953,43.945,112.793,46.875,15.137
1635969082.770,-31.250,36.621,122.070,28.809,-9.277
1635969082.774,45.410,42.480,98.633,22.949,34.180
1635969082.778,108.887,35.156,76.660,20.508,34.668
1635969082.782,14.648,24.902,75.195,14.648,2.441
1635969082.785,-33.691,43.457,93.262,38.086,32.715
1635969082.789,20.020,49.316,85.938,39.062,60.547
1635969082.793,90.820,33.691,62.988,5.371,78.125
1635969082.797,52.734,43.945,52.734,27.832,81.055
1635969082.801,-12.207,65.918,53.711,51.758,51.758
1635969082.796,6.836,68.359,66.406,41.016,31.738
1635969082.800,98.145,58.105,46.875,28.809,36.621
1635969082.804,75.684,46.387,35.645,11.230,34.668
1635969082.808,-35.156,43.457,53.223,16.113,72.266
1635969082.812,-23.438,47.852,60.547,31.250,55.664
1635969082.816,64.453,46.387,20.996,32.227,7.324
1635969082.820,86.426,35.156,11.719,18.066,42.480
1635969082.823,-8.789,35.645,38.574,23.926,50.781
1635969082.827,-32.715,42.969,21.484,38.574,40.039
1635969082.831,36.133,45.410,12.695,39.062,20.996
1635969082.835,70.801,18.066,30.762,-8.301,9.277
1635969082.839,16.113,26.855,50.293,24.414,44.434
1635969082.852,-20.508,42.969,19.043,62.012,63.477
1635969082.856,-9.766,22.461,3.906,23.926,5.859
1635969082.860,81.055,10.742,11.230,8.789,-23.926
1635969082.864,50.781,11.230,13.672,22.949,5.371
1635969082.868,-66.895,3.906,40.527,11.230,5.371
1635969082.872,-49.316,8.789,42.480,5.371,-13.184
1635969082.876,79.102,29.785,18.555,22.949,-8.301
1635969082.879,92.773,34.180,28.809,27.344,32.715
1635969082.883,-9.766,33.691,42.480,31.250,14.648
1635969082.887,-30.762,25.391,51.758,24.902,-12.695
1635969082.891,31.250,14.648,42.969,6.836,2.441
1635969082.895,73.242,16.602,62.988,5.859,1.465
1635969082.891,-13.672,20.996,103.027,21.973,35.156
1635969082.895,-34.668,28.809,113.281,29.297,59.570
1635969082.899,32.715,26.855,91.309,38.086,18.555
1635969082.903,102.539,16.602,61.035,28.809,-5.371
1635969082.907,40.527,13.672,89.844,17.578,-5.371
1635969082.911,-24.414,19.531,101.074,30.762,28.320
1635969082.915,-12.207,9.277,75.195,18.555,37.109
1635969082.918,77.637,7.812,70.801,13.672,20.020
1635969082.922,30.273,0.977,87.402,4.395,10.254
1635969082.926,-43.945,15.625,90.820,34.180,-9.766
1635969082.930,9.277,36.621,71.777,69.336,-3.418
1635969082.934,76.660,16.113,61.035,32.227,33.203
1635969082.965,82.031,12.207,80.566,16.113,41.992
1635969082.969,-27.832,9.766,113.770,20.020,-17.090
1635969082.973,-70.312,0.000,127.930,3.906,-17.578
1635969082.977,22.949,5.859,145.508,7.324,23.438
1635969082.981,103.516,15.137,147.949,20.996,8.301
1635969082.985,4.883,9.277,145.508,20.020,-2.930
1635969082.989,-63.965,-1.953,141.602,-0.977,36.621
1635969082.992,-5.859,3.906,156.738,-9.277,62.500
1635969082.996,103.516,16.602,135.742,9.277,72.754
1635969083.000,35.156,8.789,129.883,9.277,67.871
1635969083.004,-37.109,17.578,146.973,28.320,41.992
1635969083.008,0.488,23.926,126.465,32.227,5.859
1635969082.984,81.055,5.859,114.746,13.184,10.254
1635969082.988,59.570,1.465,106.445,11.719,18.555
1635969082.992,-32.715,10.254,123.047,21.484,70.801
1635969082.996,-21.973,21.484,116.699,31.250,60.059
1635969083.000,66.895,20.508,90.332,24.902,19.043
1635969083.004,75.684,7.324,90.820,3.906,33.691
1635969083.008,-9.277,24.414,110.840,30.273,39.551
1635969083.011,-14.648,38.574,106.934,53.223,43.457
1635969083.015,34.180,23.438,71.289,31.250,13.184
1635969083.019,79.590,17.578,67.871,7.324,31.738
1635969083.023,16.113,26.367,117.188,20.508,66.406
1635969083.027,-32.715,29.785,122.070,36.621,17.090
1635969083.040,5.859,25.879,100.586,17.578,20.996
1635969083.044,100.098,26.367,77.637,15.137,40.527
1635969083.048,46.875,28.320,92.773,19.531,-0.977
1635969083.052,-34.180,34.668,104.004,21.973,6.348
1635969083.056,-11.230,39.551,105.469,30.762,59.082
1635969083.060,77.637,34.180,76.172,32.227,46.387
1635969083.064,76.660,26.367,50.781,19.531,46.387
1635969083.067,-20.996,23.926,77.148,17.578,60.547
1635969083.071,-31.250,21.484,75.195,20.020,14.648
1635969083.075,51.270,16.113,58.105,14.160,-10.742
1635969083.079,83.496,9.277,34.180,5.859,-19.043
1635969083.083,-20.508,12.207,40.039,-0.488,-1.953
1635969083.079,-39.551,21.973,57.129,12.207,12.207
1635969083.083,26.367,13.184,28.320,4.883,6.836
1635969083.087,80.566,2.441,11.719,-18.066,19.043
1635969083.091,28.809,22.461,21.484,11.719,13.672
1635969083.095,-31.738,25.879,-0.488,31.250,-16.113
1635969083.099,-12.207,9.277,-24.902,10.254,-10.254
1635969083.103,84.473,16.602,-41.504,19.043,48.828
1635969083.106,36.133,13.184,-38.574,6.348,46.387
1635969083.110,-56.641,10.742,-29.785,-0.488,18.555
1635969083.114,-2.441,32.227,-42.480,44.922,6.836
1635969083.118,94.727,30.273,-60.547,43.945,-21.973
1635969083.122,82.520,17.090,-57.129,22.461,18.066
1635969083.134,-8.301,23.926,-54.199,33.203,73.242
1635969083.138,-19.043,27.344,-57.617,35.156,11.230
1635969083.142,51.270,21.973,-54.688,27.344,7.324
1635969083.146,110.352,29.297,-51.758,36.621,42.969
1635969083.150,20.508,31.738,-36.621,38.086,30.762
1635969083.154,-23.926,22.461,-40.527,37.109,24.902
1635969083.158,39.551,28.809,-62.012,40.039,47.852
1635969083.161,125.977,39.551,-56.641,39.551,77.637
1635969083.165,62.012,35.645,-41.992,48.340,57.129
1635969083.169,-10.742,30.273,-34.668,60.547,18.066
1635969083.173,23.438,23.926,-49.805,56.641,43.945
1635969083.177,113.281,23.438,-86.914,45.410,44.922
1635969083.172,92.773,25.391,-78.125,50.293,40.527
1635969083.176,-2.441,24.414,-71.777,62.500,35.645
1635969083.180,8.789,29.785,-94.238,66.406,32.715
1635969083.184,106.445,42.480,-130.371,69.336,-10.742
1635969083.188,132.324,41.504,-150.391,66.406,-36.621
1635969083.192,36.621,41.992,-148.438,71.777,32.227
1635969083.196,13.184,46.387,-183.594,77.148,57.129
1635969083.199,80.566,33.691,-222.168,68.359,20.508
1635969083.203,145.020,29.785,-253.906,67.383,7.812
1635969083.207,74.707,40.527,-262.695,79.590,14.160
1635969083.211,23.926,45.898,-292.969,91.309,30.762
1635969083.215,79.102,51.270,-338.867,93.262,16.113
1635969083.227,172.363,60.547,-349.121,85.449,10.254
1635969083.231,121.094,59.570,-360.352,81.543,-17.578
1635969083.235,41.016,56.641,-377.441,96.191,-2.441
1635969083.239,63.965,63.965,-409.668,104.492,34.180
1635969083.243,158.691,67.383,-454.102,100.586,36.133
1635969083.247,152.832,66.406,-490.234,103.027,38.574
1635969083.251,54.688,67.383,-532.715,106.934,-5.371
1635969083.254,54.199,67.383,-574.707,108.398,-4.395
1635969083.258,143.066,72.266,-616.211,106.934,23.926
1635969083.262,176.270,75.684,-635.254,105.957,57.617
1635969083.266,80.078,79.102,-632.324,111.328,31.250
1635969083.270,46.875,77.637,-622.559,115.723,21.484
1635969083.264,119.141,80.566,-610.352,114.258,44.434
1635969083.268,191.406,80.566,-621.582,107.910,51.758
1635969083.272,115.234,73.730,-627.930,108.398,14.160
1635969083.276,46.875,70.312,-638.184,110.352,-2.441
1635969083.280,84.473,68.848,-648.926,106.445,36.621
1635969083.284,176.758,66.406,-649.902,102.051,28.320
1635969083.288,135.254,65.918,-635.742,99.609,38.574
1635969083.291,47.363,66.895,-626.465,102.539,26.367
1635969083.295,68.848,65.430,-638.672,102.051,-1.953
1635969083.299,158.691,63.965,-648.438,93.262,24.414
1635969083.303,156.738,56.641,-623.535,92.773,72.754
1635969083.307,58.594,55.176,-589.844,102.051,62.500
1635969083.358,52.734,62.988,-583.984,103.516,33.691
1635969083.362,129.395,59.570,-605.469,95.215,7.812
1635969083.366,168.457,54.688,-586.426,90.332,19.531
1635969083.370,74.219,59.570,-560.059,99.121,65.430
1635969083.374,35.645,62.012,-573.730,97.656,56.152
1635969083.378,89.844,59.082,-575.684,96.191,45.410
1635969083.382,161.621,57.129,-579.590,86.914,29.785
1635969083.385,97.168,57.129,-558.594,77.148,27.832
1635969083.389,18.066,56.641,-538.086,81.055,31.738
1635969083.393,53.223,57.617,-533.691,74.219,34.668
1635969083.397,141.602,61.035,-536.133,67.383,37.109
1635969083.401,102.051,59.082,-528.320,67.383,-8.301
1635969083.395,14.648,53.223,-501.465,69.824,-36.133
1635969083.399,26.855,58.105,-480.469,73.730,30.273
1635969083.403,113.770,58.105,-468.262,68.359,87.402
1635969083.407,119.629,52.734,-462.402,64.941,53.223
1635969083.411,20.996,52.734,-432.617,67.383,9.277
1635969083.415,9.277,51.270,-411.621,70.801,-9.766
1635969083.419,83.984,48.828,-422.363,62.500,-20.020
1635969083.422,138.184,48.828,-416.992,52.246,46.387
1635969083.426,53.223,54.688,-397.461,65.918,83.008
1635969083.430,5.859,57.617,-379.883,70.312,52.246
1635969083.434,54.688,50.293,-370.605,62.500,31.250
1635969083.438,137.695,46.387,-364.746,62.988,-12.695
1635969083.417,74.219,48.828,-342.773,57.617,-3.906
1635969083.421,-17.090,49.316,-324.707,55.664,0.000
1635969083.425,15.137,48.340,-307.129,56.641,30.273
1635969083.429,106.934,47.852,-299.316,49.316,33.203
1635969083.433,84.961,48.828,-278.809,49.316,32.227
1635969083.437,-9.277,46.875,-240.234,51.758,50.781
1635969083.441,-3.418,41.504,-227.051,57.129,-8.301
1635969083.444,94.238,43.945,-228.027,56.641,0.000
1635969083.448,114.258,50.781,-220.215,37.109,66.895
1635969083.452,11.719,50.293,-196.777,39.551,-15.137
1635969083.456,-16.602,48.340,-182.617,46.387,-19.531
1635969083.460,49.316,49.316,-186.035,39.062,27.832
1635969083.471,120.605,51.758,-181.641,29.297,59.570
1635969083.475,35.645,48.828,-166.992,25.879,70.801
1635969083.479,-16.602,45.410,-150.391,38.086,62.012
1635969083.483,28.320,43.945,-154.785,37.598,72.754
1635969083.487,102.051,42.480,-172.852,29.297,60.059
1635969083.491,59.082,44.434,-152.832,36.133,54.199
1635969083.495,-24.902,45.898,-125.977,46.387,30.273
1635969083.498,-0.488,46.387,-123.535,49.316,23.926
1635969083.502,95.703,39.551,-148.926,40.527,-17.578
1635969083.506,86.914,38.086,-138.672,37.598,-17.090
1635969083.510,-7.324,41.504,-105.469,44.922,13.672
1635969083.514,-9.277,36.133,-99.121,47.852,44.922
1635969083.509,69.336,33.203,-104.980,43.945,57.617
1635969083.513,108.887,30.762,-107.910,33.691,39.551
1635969083.517,15.625,32.715,-83.008,39.551,35.156
1635969083.521,-19.043,37.598,-75.684,48.340,15.137
1635969083.525,43.945,32.227,-89.355,37.598,7.324
1635969083.529,114.258,31.250,-95.215,31.250,27.344
1635969083.533,33.203,35.156,-89.355,32.715,24.902
1635969083.536,-31.738,34.180,-73.242,33.691,24.902
1635969083.540,16.602,34.668,-63.965,36.621,51.758
1635969083.544,106.934,34.180,-75.195,30.273,12.207
1635969083.548,62.988,34.668,-79.590,29.785,-2.441
1635969083.552,-30.762,35.156,-73.242,32.715,43.945
1635969083.546,-10.742,33.691,-66.895,28.320,29.785
1635969083.550,87.891,38.574,-79.102,24.902,13.672
1635969083.554,96.680,42.480,-66.406,26.855,39.551
1635969083.558,-7.324,35.156,-56.152,27.832,26.367
1635969083.562,-20.508,34.180,-60.059,20.996,0.488
1635969083.566,61.523,32.227,-55.176,14.648,17.090
1635969083.570,100.586,27.832,-57.129,11.719,41.504
1635969083.573,4.395,31.738,-34.668,17.578,46.387
1635969083.577,-35.645,34.180,-27.832,23.926,-4.395
1635969083.581,25.391,33.691,-41.992,19.531,-50.293
1635969083.585,109.375,34.180,-41.016,14.160,14.160
1635969083.589,43.457,36.133,-24.414,23.438,41.992
1635969083.603,-26.855,39.062,-16.602,33.691,29.297
1635969083.607,6.836,39.551,-28.320,29.785,29.785
1635969083.611,97.656,35.645,-31.250,24.414,23.438
1635969083.615,76.660,36.621,-21.973,25.879,35.645
1635969083.619,-13.184,41.992,-15.625,30.273,12.695
1635969083.623,-10.742,41.992,-16.602,28.809,20.996
1635969083.627,66.895,35.156,-39.062,19.043,-4.883
1635969083.630,83.984,31.250,-34.180,19.531,-22.949
1635969083.634,-10.254,34.180,-14.648,24.414,12.695
1635969083.638,-26.855,34.180,-16.602,22.949,9.766
1635969083.642,40.527,33.691,-34.668,19.531,23.438
1635969083.646,100.586,34.180,-43.457,16.113,20.020
1635969083.641,26.855,38.574,-29.785,26.367,2.441
1635969083.645,-27.832,40.527,-16.602,32.715,27.832
1635969083.649,21.484,32.715,-13.184,26.855,38.086
1635969083.653,104.004,28.809,-34.668,19.531,64.941
1635969083.657,43.945,32.227,-21.484,25.879,82.520
1635969083.661,-35.156,30.273,-4.883,33.203,81.055
1635969083.665,-8.789,30.273,-20.996,34.668,20.996
1635969083.668,86.426,35.156,-27.344,28.809,6.836
1635969083.672,71.777,36.133,-24.902,23.438,82.520
1635969083.676,-20.508,35.645,-17.578,31.738,68.848
1635969083.680,-7.324,38.574,-12.695,40.039,11.230
1635969083.684,82.520,38.086,-22.461,36.133,20.996
1635969083.696,111.816,33.203,-27.832,32.715,3.418
1635969083.700,11.230,29.785,-23.926,38.574,27.832
1635969083.704,-14.648,32.227,-13.672,37.598,37.109
1635969083.708,58.105,33.691,-19.531,33.691,12.207
1635969083.712,122.070,32.227,-36.133,35.645,-5.859
1635969083.716,40.039,34.668,-23.438,40.039,-18.555
1635969083.720,-22.949,33.203,-16.113,37.109,3.906
1635969083.723,27.832,33.691,-17.578,36.621,13.184
1635969083.727,120.605,34.668,-24.414,33.691,38.086
1635969083.731,71.777,33.691,-21.973,35.156,48.340
1635969083.735,-15.625,34.180,-11.719,39.551,38.574
1635969083.739,-1.953,37.109,-16.113,30.762,55.664
1635969083.733,81.055,37.598,-23.438,24.414,21.973
1635969083.737,81.055,37.598,-16.113,29.785,23.438
1635969083.741,-16.113,38.574,4.395,34.668,16.602
1635969083.745,-23.438,33.203,0.000,33.203,25.391
1635969083.749,62.500,29.785,-17.090,29.785,48.828
1635969083.753,98.145,30.762,-28.809,29.785,44.434
1635969083.757,3.906,32.715,-15.625,32.227,56.152
1635969083.760,-29.785,34.180,6.348,34.180,53.223
1635969083.764,25.391,30.273,-6.348,31.250,43.945
1635969083.768,97.168,27.832,-18.555,23.926,23.926
1635969083.772,35.156,33.203,7.324,24.902,18.066
1635969083.776,-28.809,38.086,18.066,37.109,41.992
1635969083.790,13.672,35.156,3.906,37.109,7.324
1635969083.794,101.074,27.832,-20.508,17.090,-8.789
1635969083.798,62.988,32.715,-13.184,20.996,-8.789
1635969083.802,-23.438,39.062,8.301,33.691,-0.488
1635969083.806,-11.230,31.738,7.324,27.344,61.035
1635969083.810,76.660,27.344,-11.230,20.020,122.070
1635969083.814,80.078,30.762,-18.066,21.484,76.172
1635969083.817,-19.043,33.691,13.184,24.414,-38.086
1635969083.821,-29.785,35.156,26.367,25.879,-22.461
1635969083.825,41.504,33.203,10.254,27.344,0.000
1635969083.829,87.891,30.273,0.488,24.414,46.875
1635969083.833,5.371,31.250,7.812,27.344,63.477
1635969083.827,-38.086,31.250,13.184,35.645,-37.598
1635969083.831,22.461,30.273,9.277,37.598,-60.547
1635969083.835,109.863,29.785,2.441,28.320,-23.438
1635969083.839,44.434,31.250,8.301,31.250,16.113
1635969083.843,-27.832,33.203,17.578,38.086,45.410
1635969083.847,5.859,36.621,5.371,35.645,41.992
1635969083.851,98.145,37.598,-12.207,28.320,43.945
1635969083.854,81.055,35.645,13.184,26.855,44.434
1635969083.858,-13.184,39.062,25.879,33.203,20.020
1635969083.862,-7.324,43.457,22.461,34.180,-1.953
1635969083.866,79.590,41.504,11.719,27.832,6.836
1635969083.870,99.609,35.645,3.906,27.832,23.926
1635969083.884,-5.371,37.598,29.297,38.086,38.086
1635969083.888,-35.645,35.645,33.203,33.691,30.273
1635969083.892,31.738,30.273,26.367,25.879,3.418
1635969083.896,88.867,30.762,26.855,20.508,14.648
1635969083.900,4.883,29.297,39.551,22.461,22.461
1635969083.904,-55.176,25.391,40.527,29.785,0.000
1635969083.908,-2.930,24.902,23.926,27.832,19.531
1635969083.911,86.914,31.738,20.020,18.555,55.664
1635969083.915,35.645,40.039,22.461,18.066,59.082
1635969083.919,-35.645,39.062,23.438,25.391,66.895
1635969083.923,-17.578,32.715,17.090,23.438,60.547
1635969083.927,62.500,31.738,-4.883,14.160,40.527
1635969083.921,62.012,41.504,-0.488,16.602,58.594
1635969083.925,-37.598,54.199,14.648,21.484,55.664
1635969083.929,-43.457,54.688,12.695,21.973,33.691
1635969083.933,26.855,54.199,2.441,3.906,6.836
1635969083.937,48.828,53.223,0.488,-9.277,8.789
1635969083.941,-40.039,62.500,18.066,-1.465,28.809
1635969083.945,-86.426,71.777,20.020,-17.090,25.879
1635969083.948,-28.809,80.566,15.137,-26.855,19.531
1635969083.952,41.992,84.473,5.859,-28.809,16.602
1635969083.956,-56.152,98.145,13.184,-55.176,2.441
1635969083.960,-130.371,115.234,31.250,-69.824,-2.441
1635969083.964,-110.840,125.488,29.785,-84.473,20.508
1635969083.977,-47.363,134.766,28.809,-111.328,105.469
1635969083.981,-93.750,139.160,34.668,-125.977,59.082
1635969083.985,-197.754,156.250,45.898,-145.020,-14.648
1635969083.989,-198.242,168.945,41.016,-168.457,-1.465
1635969083.993,-121.582,175.781,30.273,-189.453,39.062
1635969083.997,-132.812,179.199,33.203,-202.637,70.801
1635969084.001,-256.348,181.641,44.922,-214.844,25.391
1635969084.004,-284.668,176.758,68.848,-229.004,16.602
1635969084.008,-198.242,165.039,76.172,-228.027,43.945
1635969084.012,-155.762,151.855,77.637,-234.375,58.594
1635969084.016,-249.023,145.020,90.820,-232.422,84.961
1635969084.020,-280.273,141.113,92.285,-224.609,62.500
1635969084.014,-220.215,131.836,92.773,-227.051,51.270
1635969084.018,-138.184,123.535,75.195,-214.355,62.988
1635969084.022,-197.266,119.141,75.195,-195.801,40.039
1635969084.026,-257.324,109.375,86.914,-181.152,30.762
1635969084.030,-194.824,99.121,75.684,-157.227,38.574
1635969084.034,-85.449,91.309,48.340,-139.648,25.391
1635969084.038,-100.586,82.031,39.062,-127.441,-14.648
1635969084.041,-164.062,72.266,49.805,-102.051,-43.945
1635969084.045,-134.766,68.359,31.250,-81.543,-0.977
1635969084.049,-29.785,61.523,4.395,-68.848,26.367
1635969084.053,12.695,47.852,8.301,-45.898,-29.297
1635969084.057,-60.547,35.645,20.508,-16.602,11.719
1635969084.071,-63.477,28.809,15.137,-0.977,92.773
1635969084.075,19.531,21.973,-11.230,15.625,60.059
1635969084.079,93.262,14.648,-16.602,20.996,40.527
1635969084.083,29.297,8.301,1.465,27.832,25.879
1635969084.087,-13.672,0.000,-2.441,48.828,-23.438
1635969084.091,52.734,-2.930,-17.578,65.918,-14.160
1635969084.095,152.344,-6.348,-27.344,65.918,30.762
1635969084.098,102.539,-14.648,-7.324,65.430,62.012
1635969084.102,34.668,-20.508,4.395,81.543,89.355
1635969084.106,71.289,-21.484,-11.230,90.820,56.641
1635969084.110,164.062,-22.949,-33.691,88.379,30.273
1635969084.114,146.484,-24.414,-38.574,90.332,10.254
1635969084.127,59.570,-22.949,-20.508,106.445,-18.555
1635969084.131,64.941,-21.973,-19.531,110.352,7.324
1635969084.135,149.414,-21.973,-31.738,106.934,26.367
1635969084.139,184.082,-24.902,-41.016,112.793,45.898
1635969084.143,87.891,-26.855,-30.762,117.188,1.953
1635969084.147,63.965,-26.855,-20.020,123.047,-24.414
1635969084.151,137.207,-29.785,-32.227,128.906,0.000
1635969084.154,204.102,-30.762,-34.180,124.512,11.719
1635969084.158,123.047,-26.367,-26.855,125.000,15.625
1635969084.162,62.012,-26.367,-28.809,127.441,18.555
1635969084.166,105.957,-34.180,-25.879,125.977,58.105
1635969084.170,193.359,-36.621,-33.203,124.023,65.430
1635969084.165,148.926,-30.762,-27.832,127.441,36.621
1635969084.169,63.965,-29.785,-19.531,125.488,-16.113
1635969084.173,85.938,-30.273,-20.508,119.629,2.930
1635969084.177,179.688,-31.250,-30.762,110.352,44.434
1635969084.181,173.828,-21.973,-35.645,108.887,26.367
1635969084.185,70.801,-6.348,-24.902,118.164,27.344
1635969084.189,56.641,-2.441,-20.508,115.723,-24.414
1635969084.192,138.184,-3.418,-22.949,106.934,-18.066
1635969084.196,182.617,0.488,-19.043,99.609,52.246
1635969084.200,82.031,0.488,-4.883,100.586,31.738
1635969084.204,35.156,-4.883,-9.766,102.539,7.812
1635969084.208,99.121,-4.883,-24.902,95.703,8.789
1635969084.202,177.734,-1.953,-21.973,89.355,5.859
1635969084.206,102.051,2.441,-6.836,92.773,8.301
1635969084.210,36.133,2.930,3.906,95.215,22.949
1635969084.214,74.707,-2.441,-11.230,92.285,32.227
1635969084.218,162.598,-4.883,-27.344,87.402,44.922
1635969084.222,127.441,-6.348,-15.137,85.938,37.598
1635969084.226,35.156,-3.418,-2.441,91.797,17.578
1635969084.229,41.992,0.488,0.977,89.355,6.836
1635969084.233,120.117,-3.906,-10.742,77.148,32.227
1635969084.237,125.488,-7.812,-11.230,74.219,40.039
1635969084.241,31.738,-7.324,9.766,79.590,10.742
1635969084.245,16.113,-6.836,16.113,84.473,43.945
1635969084.258,95.703,-5.859,4.883,77.637,47.363
1635969084.262,144.043,-3.906,-6.836,67.871,25.879
1635969084.266,60.547,-0.488,11.230,68.359,59.082
1635969084.270,10.254,0.977,13.184,70.312,51.758
1635969084.274,61.035,2.930,0.000,67.383,-0.977
1635969084.278,147.949,6.348,0.977,62.988,-11.719
1635969084.282,85.449,9.277,8.301,59.082,4.883
1635969084.285,10.742,9.766,22.461,61.035,-14.160
1635969084.289,34.180,10.254,24.902,55.664,27.832
1635969084.293,118.652,13.672,13.672,43.945,50.293
1635969084.297,97.168,15.137,17.578,49.805,32.715
1635969084.301,3.418,16.113,28.809,59.570,45.410
1635969084.296,11.230,18.066,36.133,55.176,2.930
1635969084.300,92.285,17.578,29.785,46.387,-6.836
1635969084.304,106.934,20.020,26.855,44.434,1.465
1635969084.308,11.719,18.066,35.156,50.781,14.160
1635969084.312,-14.648,17.090,35.645,44.922,47.363
1635969084.316,56.641,20.508,22.461,34.180,62.988
1635969084.320,117.188,17.578,15.625,29.785,24.902
1635969084.323,31.250,23.926,33.691,37.109,31.738
1635969084.327,-20.996,27.344,28.320,39.551,49.805
1635969084.331,25.391,22.949,17.578,35.645,-11.230
1635969084.335,107.910,22.461,21.973,34.180,-10.742
1635969084.339,55.176,20.020,27.832,34.180,33.203
1635969084.352,-29.297,20.508,27.832,39.551,32.715
1635969084.356,-3.418,22.949,9.766,35.645,-0.488
1635969084.360,84.473,22.949,5.371,24.414,32.715
1635969084.364,76.172,25.391,18.555,28.809,62.012
1635969084.368,-13.672,30.762,29.297,39.062,37.598
1635969084.372,-14.160,30.273,27.344,41.016,-0.977
1635969084.376,62.988,27.832,7.812,36.133,22.949
1635969084.379,97.168,28.809,9.277,33.691,24.414
1635969084.383,12.695,26.367,28.809,37.109,42.969
1635969084.387,-15.137,26.367,32.227,38.086,45.410
1635969084.391,40.039,26.855,20.508,34.180,-9.277
1635969084.395,104.004,28.320,10.254,35.156,34.180
1635969084.389,31.250,34.180,22.949,39.551,50.781
1635969084.393,-33.203,34.180,26.367,33.203,8.301
1635969084.397,11.719,32.227,20.996,31.250,9.277
1635969084.401,105.469,32.227,0.488,26.855,9.766
1635969084.405,72.266,34.668,5.859,31.250,4.883
1635969084.409,-13.184,37.598,29.297,39.551,35.645
1635969084.413,-3.418,38.574,25.879,35.156,43.945
1635969084.416,83.496,34.668,16.113,30.273,50.293
1635969084.420,85.449,33.203,11.230,25.879,74.219
1635969084.424,-12.695,34.180,21.484,26.367,57.129
1635969084.428,-19.531,35.645,30.762,32.227,10.742
1635969084.432,57.617,36.133,22.949,26.855,43.457
1635969084.446,99.121,36.621,14.160,18.555,54.199
1635969084.450,10.742,35.156,19.531,23.438,22.949
1635969084.454,-27.832,31.738,27.344,30.273,23.926
1635969084.458,31.250,31.250,19.531,28.809,10.254
1635969084.462,110.840,30.762,8.789,23.438,4.883
1635969084.466,51.758,35.645,22.461,35.645,36.133
1635969084.470,-19.531,40.039,22.461,40.527,39.062
1635969084.473,17.578,34.668,21.973,37.598,-24.902
1635969084.477,108.887,31.738,23.926,31.738,5.371
1635969084.481,74.219,33.691,25.879,26.855,49.316
1635969084.485,-12.207,28.809,21.973,32.715,-16.602
1635969084.489,-9.277,27.344,11.230,34.180,-42.969
1635969084.502,70.801,28.809,9.277,30.273,-5.859
1635969084.506,83.984,28.809,10.254,20.996,41.504
1635969084.510,-16.113,30.273,18.066,21.973,89.844
1635969084.514,-32.227,32.715,13.184,28.809,62.012
1635969084.518,40.527,33.203,2.441,21.973,20.996
1635969084.522,92.773,29.785,-1.953,15.137,21.484
1635969084.526,9.766,30.762,14.160,25.391,10.742
1635969084.529,-38.086,34.668,29.297,29.785,18.066
1635969084.533,10.742,33.691,6.836,22.949,49.805
1635969084.537,95.703,31.738,-9.766,18.555,43.945
1635969084.541,40.039,29.297,10.742,23.438,9.277
1635969084.545,-30.762,26.855,20.508,24.414,24.414
1635969084.539,-0.977,25.391,16.113,21.973,14.648
1635969084.543,78.125,27.832,-0.977,21.484,8.789
1635969084.547,63.477,31.250,7.324,21.484,25.391
1635969084.551,-21.973,28.809,28.320,27.344,8.301
1635969084.555,-20.508,27.832,29.785,27.344,38.574
1635969084.559,61.035,29.785,13.672,24.414,58.105
1635969084.563,82.520,29.785,6.348,21.484,15.625
1635969084.566,-14.160,33.203,22.461,23.438,-0.977
1635969084.570,-35.645,34.668,26.367,26.367,39.551
1635969084.574,34.180,31.738,15.625,24.902,30.273
1635969084.578,93.262,29.785,2.930,18.555,0.000
1635969084.582,14.648,30.762,12.695,20.020,-7.812
1635969084.579,-32.715,32.715,28.809,32.715,-3.906
1635969084.583,15.137,30.762,20.996,30.273,18.066
1635969084.587,98.145,29.785,2.930,17.090,4.883
1635969084.591,52.734,36.621,5.859,22.949,45.410
1635969084.595,-25.879,35.645,17.578,25.879,104.004
1635969084.599,0.000,27.832,19.531,20.508,48.340
1635969084.603,84.961,27.832,9.766,17.578,7.812
1635969084.606,78.613,34.668,16.113,18.555,35.645
1635969084.610,-12.695,35.156,22.461,28.320,39.062
1635969084.614,-18.555,34.180,25.879,29.785,41.992
1635969084.618,64.453,34.668,17.578,24.902,54.688
1635969084.622,101.074,31.250,10.742,23.438,64.941
1635969084.634,8.301,31.738,22.461,27.832,-1.953
1635969084.638,-30.273,35.156,24.414,27.344,-34.180
1635969084.642,36.133,37.598,20.020,22.949,27.832
1635969084.646,115.234,41.992,14.648,17.090,65.918
1635969084.650,42.969,42.480,31.250,22.461,86.426
1635969084.654,-26.367,34.668,32.227,30.762,60.059
1635969084.658,4.883,37.598,12.695,23.926,23.926
1635969084.661,93.750,41.504,5.859,13.184,-6.836
1635969084.665,51.758,38.574,18.066,16.602,20.996
1635969084.669,-41.016,38.086,25.879,25.391,66.406
1635969084.673,-23.438,34.180,16.113,30.762,27.832
1635969084.677,63.477,28.809,0.000,27.344,6.348
1635969084.671,74.707,30.273,4.883,21.973,25.391
1635969084.675,-15.625,33.691,20.020,31.250,7.324
1635969084.679,-25.391,36.133,23.438,33.691,9.277
1635969084.683,50.293,33.691,11.719,23.926,10.254
1635969084.687,86.914,27.344,1.465,20.508,17.578
1635969084.691,-8.789,28.809,13.672,32.227,21.973
1635969084.695,-49.316,30.273,16.113,33.691,6.348
1635969084.698,13.672,28.809,3.906,22.949,17.090
1635969084.702,96.191,31.738,-2.441,20.020,53.223
1635969084.706,32.715,34.180,10.742,24.414,31.738
1635969084.710,-34.668,30.762,25.391,31.250,2.441
1635969084.714,2.441,29.297,13.672,24.902,-3.906
1635969084.727,92.285,31.738,2.441,18.555,41.016
1635969084.731,61.035,31.250,2.930,23.926,51.270
1635969084.735,-33.691,30.273,11.230,27.344,19.531
1635969084.739,-25.391,32.715,16.602,26.367,60.059
1635969084.743,68.359,33.203,9.766,25.391,83.008
1635969084.747,88.867,28.809,2.441,26.855,52.734
1635969084.751,-13.184,29.297,5.371,28.320,38.086
1635969084.754,-30.762,33.203,18.555,29.297,42.969
1635969084.758,48.340,34.180,10.254,30.273,16.113
1635969084.762,113.770,36.621,1.953,23.438,0.977
1635969084.766,36.133,33.691,7.812,26.367,27.832
1635969084.770,-24.414,32.715,7.812,32.715,20.996
1635969084.764,28.809,34.668,11.719,29.785,-6.836
1635969084.768,116.699,30.762,3.906,21.973,40.039
1635969084.772,57.129,28.809,2.441,27.344,67.383
1635969084.776,-19.043,27.832,19.043,38.574,48.828
1635969084.780,6.348,26.367,25.879,39.551,28.320
1635969084.784,93.262,21.973,17.578,35.156,29.297
1635969084.788,80.566,24.414,30.762,34.668,75.684
1635969084.791,-17.090,29.785,51.270,36.621,40.039
1635969084.795,-26.855,27.344,43.457,34.180,41.016
1635969084.799,54.199,25.879,31.738,23.926,85.938
1635969084.803,94.727,28.809,36.621,22.949,54.688
1635969084.807,0.000,29.297,47.852,30.273,54.688
1635969084.821,-33.203,30.273,48.828,32.715,60.059
1635969084.825,34.668,34.180,24.902,27.832,34.180
1635969084.829,104.004,32.715,14.648,23.438,13.672
1635969084.833,31.738,33.691,31.250,33.691,0.977
1635969084.837,-26.367,36.621,38.574,36.133,33.203
1635969084.841,14.648,34.180,23.438,33.203,25.391
1635969084.845,97.656,32.227,2.930,27.344,-11.719
1635969084.848,58.105,35.156,18.066,25.879,0.000
1635969084.852,-19.531,32.715,24.902,30.273,19.531
1635969084.856,-3.418,27.832,18.555,28.320,32.715
1635969084.860,85.938,22.949,6.348,25.391,34.180
1635969084.864,85.449,26.367,2.930,27.344,29.297
1635969084.858,-8.789,37.109,20.996,37.109,29.297
1635969084.862,-15.625,32.715,14.160,38.574,6.348
1635969084.866,66.406,25.879,-5.859,30.273,9.277
1635969084.870,107.422,24.902,-17.578,22.461,44.922
1635969084.874,7.812,31.250,-4.883,26.855,13.184
1635969084.878,-21.973,42.480,7.812,33.691,26.367
1635969084.882,44.434,44.922,-3.418,29.297,71.289
1635969084.885,107.422,38.086,-13.184,21.484,88.867
1635969084.889,33.691,35.156,-11.719,22.461,56.152
1635969084.893,-31.250,37.109,-7.324,26.855,9.766
1635969084.897,7.324,33.203,-5.371,24.414,-13.184
1635969084.901,96.191,32.227,-15.625,18.555,24.902
1635969084.914,67.383,37.598,-7.324,27.344,21.484
1635969084.918,-23.438,33.691,1.953,28.320,19.531
1635969084.922,-11.230,28.320,2.441,21.973,13.184
1635969084.926,82.031,28.809,1.465,22.949,16.602
1635969084.930,90.820,29.297,-2.441,22.461,54.199
1635969084.934,-7.812,25.879,7.812,28.809,20.996
1635969084.938,-23.926,25.879,6.348,32.227,-28.809
1635969084.941,52.734,24.902,5.859,28.320,-5.371
1635969084.945,104.980,22.949,10.254,21.484,64.941
1635969084.949,16.602,25.391,15.137,21.973,64.941
1635969084.953,-36.133,25.879,14.160,25.391,34.668
1635969084.957,20.996,25.391,7.324,21.484,4.883
1635969084.952,104.980,24.902,2.441,16.113,30.273
1635969084.956,34.668,21.973,2.930,21.973,20.508
1635969084.960,-39.551,19.531,12.695,25.879,38.086
1635969084.964,-9.766,20.020,9.277,20.508,22.949
1635969084.968,81.543,19.043,-2.930,14.160,21.973
1635969084.972,62.500,21.484,-8.301,13.672,33.691
1635969084.976,-32.715,25.391,8.789,18.555,8.301
1635969084.979,-25.879,29.297,24.902,19.043,33.691
1635969084.983,64.941,24.902,3.906,17.090,13.184
1635969084.987,91.797,17.578,-3.906,13.184,-30.273
1635969084.991,-3.418,23.438,20.508,19.043,6.836
1635969084.995,-30.273,31.738,19.043,25.391,27.832
1635969085.009,40.527,28.320,1.953,16.602,10.742
1635969085.013,96.191,22.949,-8.789,9.766,53.711
1635969085.017,11.230,23.438,5.859,15.137,39.551
1635969085.021,-41.504,24.902,19.043,20.996,-3.906
1635969085.025,10.254,27.344,11.230,17.578,3.418
1635969085.029,95.215,30.273,-1.465,10.742,72.754
1635969085.033,35.156,29.297,1.953,11.719,89.844
1635969085.036,-52.734,27.832,19.531,17.090,50.293
1635969085.040,-27.344,27.344,22.461,20.020,56.152
1635969085.044,63.965,26.367,8.789,18.555,48.828
1635969085.048,57.129,26.367,0.000,17.578,51.758
1635969085.052,-35.156,28.320,5.371,20.996,-8.301
1635969085.048,-34.180,31.738,22.949,24.902,-13.672
1635969085.052,56.641,27.832,16.602,25.391,9.766
1635969085.056,88.867,26.367,5.371,19.043,1.953
1635969085.060,-9.766,27.832,4.883,22.461,8.789
1635969085.064,-40.039,23.438,6.348,22.949,-6.836
1635969085.068,16.602,20.020,2.930,17.578,16.602
1635969085.072,86.426,20.996,-2.930,13.184,75.684
1635969085.075,27.344,20.020,10.742,16.113,39.062
1635969085.079,-41.016,18.066,11.230,27.344,-41.992
1635969085.083,-4.883,21.484,10.254,27.344,11.230
1635969085.087,89.355,20.996,6.836,15.137,31.738
1635969085.091,46.875,15.137,7.812,17.578,16.113
1635969085.103,-37.598,15.625,15.625,29.297,0.977
1635969085.107,-20.996,20.996,11.230,28.320,-1.465
1635969085.111,67.871,22.949,5.859,20.020,42.480
1635969085.115,72.754,22.949,9.766,22.949,25.391
1635969085.119,-20.996,25.391,23.438,31.738,4.883
1635969085.123,-27.832,25.879,19.531,31.250,17.578
1635969085.127,47.363,25.879,4.395,25.879,29.785
1635969085.130,93.262,28.320,12.207,21.973,34.180
1635969085.134,13.672,31.250,25.879,27.832,23.926
1635969085.138,-14.648,27.344,23.926,38.574,3.418
1635969085.142,36.621,18.066,11.719,45.410,-12.207
1635969085.146,86.914,23.926,-1.465,22.949,13.184
1635969085.139,26.855,31.250,15.137,17.578,13.184
1635969085.143,-32.715,31.250,28.320,30.273,16.113
1635969085.147,-9.766,38.086,19.043,19.531,21.973
1635969085.151,82.031,38.086,2.441,15.625,32.715
1635969085.155,55.664,34.180,5.371,19.531,44.434
1635969085.159,-39.551,31.738,17.578,25.391,13.184
1635969085.163,-24.902,30.273,16.602,29.785,-20.996
1635969085.166,65.918,33.691,10.742,20.996,18.066
1635969085.170,83.008,37.109,8.789,21.484,73.242
1635969085.174,-15.137,31.738,23.438,29.297,62.500
1635969085.178,-38.574,29.297,29.297,27.344,21.484
1635969085.182,42.480,33.691,20.508,22.949,12.207
1635969085.196,104.980,31.250,21.484,19.531,55.176
1635969085.200,15.137,30.762,19.043,24.414,-6.836
1635969085.204,-34.668,34.180,28.320,26.367,-23.438
1635969085.208,22.461,33.203,39.062,25.391,36.133
1635969085.212,110.840,26.855,27.344,24.902,39.062
1635969085.216,45.410,24.414,30.762,28.320,55.176
1635969085.220,-40.039,26.367,33.203,28.320,22.461
1635969085.223,-3.418,29.297,31.250,21.484,-1.465
1635969085.227,89.844,26.367,22.949,16.602,19.531
1635969085.231,79.590,29.785,29.297,22.461,54.199
1635969085.235,-14.160,32.715,38.574,30.273,53.711
1635969085.239,-13.672,32.227,32.715,31.738,14.160
1635969085.233,74.219,28.809,26.855,28.809,-19.531
1635969085.237,96.680,28.809,22.949,23.926,-0.488
1635969085.241,0.977,32.715,33.691,31.250,46.387
1635969085.245,-31.738,32.227,34.668,37.109,37.598
1635969085.249,41.016,35.645,18.066,29.785,30.762
1635969085.253,107.422,33.691,5.859,20.996,56.641
1635969085.257,24.414,32.227,23.926,26.367,15.625
1635969085.260,-25.879,34.180,43.457,33.691,-3.418
1635969085.264,18.066,30.762,22.949,27.832,2.930
1635969085.268,99.121,32.227,5.859,20.996,9.277
1635969085.272,58.105,34.668,25.391,32.227,61.523
1635969085.276,-28.809,34.180,32.715,40.039,31.738
1635969085.290,-4.395,36.133,32.715,34.668,42.480
1635969085.294,88.379,36.133,13.184,27.832,35.156
1635969085.298,83.496,33.691,14.160,28.809,18.555
1635969085.302,-10.254,28.320,32.715,36.133,32.227
1635969085.306,-21.484,28.320,31.250,38.086,33.203
1635969085.310,61.523,30.762,17.578,34.668,18.066
1635969085.314,101.562,30.762,3.906,28.320,8.789
1635969085.317,9.277,31.250,18.066,28.809,38.574
1635969085.321,-23.926,31.738,30.273,36.621,53.711
1635969085.325,36.621,28.809,20.020,37.598,33.691
1635969085.329,99.609,25.391,6.348,34.180,14.160
1635969085.333,26.855,33.203,16.113,33.691,0.977
1635969085.328,-32.715,34.668,30.273,33.691,-11.719
1635969085.332,0.488,27.344,21.973,30.762,22.949
1635969085.336,95.215,28.320,13.672,26.367,37.598
1635969085.340,59.082,30.273,15.137,23.438,50.293
1635969085.344,-40.527,27.344,19.043,21.484,12.207
1635969085.348,-25.879,26.367,19.531,18.066,-8.301
1635969085.352,70.312,25.879,2.441,16.602,30.273
1635969085.355,77.637,29.785,13.672,20.020,37.598
1635969085.359,-30.273,33.203,34.180,20.996,49.805
1635969085.363,-40.527,27.832,34.668,22.461,55.176
1635969085.367,51.758,23.438,26.855,23.926,58.105
1635969085.371,104.980,27.344,20.508,23.926,49.316
1635969085.384,13.672,29.297,30.273,26.367,6.836
1635969085.388,-37.109,24.414,21.973,21.973,12.207
1635969085.392,16.602,26.367,16.113,20.020,42.969
1635969085.396,103.516,28.320,17.090,18.066,43.457
1635969085.400,38.574,26.855,20.020,20.508,26.367
1635969085.404,-40.527,29.297,26.367,22.949,29.297
1635969085.408,-13.672,32.715,21.973,15.137,30.762
1635969085.411,78.125,33.203,15.137,2.930,12.207
1635969085.415,58.594,29.297,17.090,8.301,11.719
1635969085.419,-37.109,28.320,29.297,20.996,36.621
1635969085.423,-30.762,29.785,25.879,23.926,37.109
1635969085.427,65.918,33.203,10.742,14.648,33.691
1635969085.421,90.332,35.156,22.949,12.207,30.273
1635969085.425,-15.625,29.785,37.598,25.879,-8.789
1635969085.429,-42.480,30.273,41.504,29.785,5.371
1635969085.433,28.809,32.227,22.461,25.879,37.598
1635969085.437,93.750,29.785,7.812,18.066,17.090
1635969085.441,14.160,28.809,26.855,21.484,8.301
1635969085.445,-42.480,24.414,36.133,32.227,-5.371
1635969085.448,18.555,24.902,30.273,32.227,0.000
1635969085.452,104.004,25.879,13.184,25.391,26.367
1635969085.456,39.551,26.855,20.508,23.926,30.762
1635969085.460,-28.320,35.645,43.457,28.320,45.410
1635969085.464,0.488,35.156,35.645,31.250,37.598
1635969085.478,84.961,28.320,20.020,25.391,25.879
1635969085.482,73.242,30.762,17.578,21.484,40.527
1635969085.486,-20.020,28.809,35.156,24.414,73.242
1635969085.490,-21.484,20.996,43.457,26.367,53.223
1635969085.494,60.547,16.602,27.344,22.949,27.832
1635969085.498,94.727,18.555,21.973,22.949,22.461
1635969085.502,-1.465,22.949,29.297,29.785,0.488
1635969085.505,-30.762,25.391,41.016,31.250,49.316
1635969085.509,40.527,29.297,41.504,33.203,86.914
1635969085.513,112.305,31.738,30.273,29.785,99.121
1635969085.517,34.180,32.715,36.133,32.227,69.336
1635969085.521,-28.809,29.297,41.504,37.109,6.836
1635969085.517,16.113,24.902,39.551,28.809,3.906
1635969085.521,107.910,23.926,27.832,26.855,48.340
1635969085.525,69.336,25.879,32.715,32.227,86.914
1635969085.529,-30.762,28.320,33.691,28.320,27.344
1635969085.533,-19.531,30.762,21.973,27.344,-35.156
1635969085.537,75.684,34.180,17.090,20.996,7.812
1635969085.541,75.684,40.039,18.555,15.625,36.621
1635969085.544,-22.949,41.016,30.762,19.531,38.574
1635969085.548,-42.480,34.180,21.973,22.949,62.500
1635969085.552,37.109,34.180,7.812,20.020,44.434
1635969085.556,88.867,35.156,22.461,15.625,46.875
1635969085.560,-6.348,34.668,35.645,22.949,47.852
1635969085.572,-49.316,33.203,37.109,26.367,44.922
1635969085.576,10.254,28.809,26.367,20.508,61.035
1635969085.580,90.332,27.832,16.602,19.531,23.438
1635969085.584,26.855,30.762,28.320,22.461,-8.301
1635969085.588,-46.387,28.320,37.109,24.902,-10.254
1635969085.592,-8.301,27.832,28.320,25.879,-47.852
1635969085.596,92.773,28.809,17.090,17.090,33.691
1635969085.599,62.988,32.715,22.949,16.113,55.176
1635969085.603,-22.461,41.992,37.109,27.344,30.762
1635969085.607,-5.859,38.086,31.738,29.297,55.664
1635969085.611,79.590,28.320,13.184,24.414,53.223
1635969085.615,90.820,31.250,11.230,26.855,36.133
1635969085.608,-8.301,36.621,34.180,36.133,25.391
1635969085.612,-19.531,33.691,41.504,35.645,41.016
1635969085.616,63.965,31.250,29.785,28.320,0.000
1635969085.620,113.770,32.715,19.043,22.461,-11.719
1635969085.624,24.902,34.668,20.996,25.879,47.852
1635969085.628,-23.926,33.203,28.809,36.133,41.504
1635969085.632,20.508,31.738,26.855,32.227,31.250
1635969085.635,105.957,32.227,20.020,24.902,43.945
1635969085.639,53.223,35.645,22.461,27.344,19.043
1635969085.643,-31.250,34.668,25.391,26.855,-41.016
1635969085.647,4.883,30.273,33.691,26.855,-29.785
1635969085.651,107.422,27.832,24.414,22.461,53.711
1635969085.683,79.102,27.344,19.531,25.391,35.156
1635969085.687,-27.344,26.367,23.926,29.297,8.301
1635969085.691,-30.762,28.320,27.344,22.461,32.715
1635969085.695,64.453,29.297,21.973,25.879,50.293
1635969085.699,91.309,27.832,17.578,27.832,41.504
1635969085.703,-18.066,30.273,25.879,31.250,3.906
1635969085.707,-44.434,28.809,25.879,29.297,-2.441
1635969085.710,27.832,20.996,23.926,26.367,15.137
1635969085.714,85.938,19.043,20.508,20.508,18.066
1635969085.718,9.766,21.973,30.273,21.484,39.551
1635969085.722,-40.527,23.926,32.715,28.320,56.152
1635969085.726,-2.441,20.508,22.949,17.090,54.199
1635969085.739,89.355,18.066,13.184,13.184,53.223
1635969085.743,42.969,20.508,23.926,19.531,58.594
1635969085.747,-43.457,20.996,41.016,25.391,6.348
1635969085.751,-16.113,20.508,38.086,27.344,12.207
1635969085.755,77.148,19.043,29.297,21.484,76.172
1635969085.759,70.801,16.113,21.484,20.020,64.941
1635969085.763,-27.832,19.043,26.367,25.879,33.691
1635969085.766,-26.855,28.809,34.180,25.879,25.879
1635969085.770,60.547,31.250,20.996,22.949,12.695
1635969085.774,95.703,30.762,15.625,20.020,14.648
1635969085.778,1.953,34.668,33.203,23.926,36.621
1635969085.782,-26.367,37.109,40.039,28.320,28.809
1635969085.761,35.645,32.227,32.715,26.855,24.414
1635969085.765,98.633,27.344,15.625,21.973,50.781
1635969085.769,24.414,32.227,25.391,25.391,62.500
1635969085.773,-38.086,33.203,41.016,29.297,-27.344
1635969085.777,4.395,32.715,31.250,26.855,-55.664
1635969085.781,97.168,31.738,16.602,21.973,20.996
1635969085.785,58.105,29.297,22.461,25.391,1.953
1635969085.788,-29.785,32.227,42.480,30.273,5.859
1635969085.792,-7.812,34.180,42.480,36.621,21.484
1635969085.796,85.449,33.691,28.809,31.250,21.484
1635969085.800,91.797,33.203,25.879,22.949,6.348
1635969085.804,-12.207,36.133,39.551,30.273,31.738
1635969085.797,-31.738,38.574,45.410,29.785,59.082
1635969085.801,54.688,37.598,30.762,27.832,30.273
1635969085.805,109.375,44.434,26.855,24.902,44.434
1635969085.809,14.648,46.387,32.715,27.832,36.621
1635969085.813,-32.715,39.062,29.785,36.133,25.391
1635969085.817,24.902,35.645,30.762,32.715,-7.324
1635969085.821,106.445,35.156,26.855,28.320,28.809
1635969085.824,45.410,33.691,32.227,31.738,38.086
1635969085.828,-22.461,32.227,37.109,35.645,-8.789
1635969085.832,7.324,35.156,34.180,33.203,6.348
1635969085.836,99.609,34.668,30.762,27.832,27.832
1635969085.840,72.754,35.156,29.785,32.227,58.105
1635969085.852,-23.926,40.039,39.062,36.133,64.453
1635969085.856,-13.184,38.574,35.645,34.180,42.480
1635969085.860,78.125,39.062,27.344,26.855,79.102
1635969085.864,99.121,39.062,30.762,27.344,53.223
1635969085.868,-0.977,33.691,37.598,34.180,-12.695
1635969085.872,-23.438,35.645,32.715,28.809,21.484
1635969085.876,46.875,34.180,15.137,19.043,18.066
1635969085.879,106.445,33.691,15.625,12.207,11.230
1635969085.883,19.531,39.062,30.762,18.066,31.250
1635969085.887,-36.133,39.551,34.668,20.508,45.410
1635969085.891,16.113,35.156,23.438,14.648,12.695
1635969085.895,103.027,32.715,3.906,11.230,5.371
1635969085.890,44.922,33.691,15.625,10.742,6.348
1635969085.894,-38.086,28.809,31.738,14.648,29.785
1635969085.898,-13.672,24.414,22.461,12.695,18.066
1635969085.902,81.055,26.855,7.324,7.324,29.297
1635969085.906,70.312,27.344,8.789,6.348,45.898
1635969085.910,-37.598,24.414,21.973,11.719,23.438
1635969085.914,-43.945,25.391,27.832,11.230,21.973
1635969085.917,51.758,24.414,28.809,4.395,41.016
1635969085.921,78.613,26.367,19.043,6.348,8.301
1635969085.925,-25.391,33.203,26.855,13.184,-6.836
1635969085.929,-51.270,33.203,42.480,14.160,34.668
1635969085.933,16.113,30.762,28.320,12.695,26.855
1635969085.965,90.820,30.762,20.508,15.625,72.266
1635969085.969,11.719,31.738,26.367,11.230,49.805
1635969085.973,-51.758,33.203,33.691,9.277,19.043
1635969085.977,-4.883,32.227,33.691,16.602,30.273
1635969085.981,77.637,28.809,19.043,12.695,15.625
1635969085.985,37.109,27.832,19.531,18.555,14.648
1635969085.989,-47.852,26.855,31.250,23.438,8.301
1635969085.992,-23.438,24.414,37.598,23.438,-2.441
1635969085.996,76.172,21.484,30.762,21.973,-7.324
1635969086.000,73.730,21.973,27.832,20.020,43.945
1635969086.004,-32.227,26.367,28.809,29.297,34.180
1635969086.008,-44.922,31.250,28.320,29.297,22.949
1635969086.002,44.922,31.250,20.508,21.484,29.297
1635969086.006,93.750,32.715,13.184,22.461,60.059
1635969086.010,-3.906,32.227,27.344,31.250,78.613
1635969086.014,-42.969,30.762,25.391,37.109,14.160
1635969086.018,23.438,33.691,13.672,30.273,-9.277
1635969086.022,104.492,31.250,12.695,24.902,15.137
1635969086.026,34.668,26.855,26.367,29.785,22.949
1635969086.029,-34.180,24.902,38.574,36.621,20.508
1635969086.033,4.883,26.367,23.926,38.574,9.766
1635969086.037,97.168,25.879,12.695,25.391,-7.324
1635969086.041,66.895,25.391,28.809,23.926,24.414
1635969086.045,-24.414,25.391,32.715,32.715,30.762
1635969086.040,-16.602,29.297,31.738,30.273,-14.648
1635969086.044,68.848,30.273,15.625,25.879,-16.602
1635969086.048,84.961,26.367,19.043,24.902,11.719
1635969086.052,-16.602,20.996,40.039,26.855,32.227
1635969086.056,-35.156,19.531,36.621,31.738,43.457
1635969086.060,46.387,21.484,20.020,32.715,20.996
1635969086.064,94.238,22.949,11.719,23.926,-3.906
1635969086.067,-2.441,27.832,31.738,23.438,-4.883
1635969086.071,-48.340,29.785,39.551,28.809,24.414
1635969086.075,11.719,29.785,28.809,26.855,41.992
1635969086.079,96.191,31.738,13.672,22.949,15.625
1635969086.083,35.645,34.180,17.578,25.879,14.160
1635969086.078,-38.086,35.156,41.992,26.855,21.973
1635969086.082,-7.812,32.227,41.504,29.297,-1.953
1635969086.086,84.473,31.250,24.902,23.438,23.926
1635969086.090,62.500,30.273,22.949,21.973,70.312
1635969086.094,-29.785,26.367,31.738,30.273,39.062
1635969086.098,-20.020,24.414,34.668,30.762,24.902
1635969086.102,63.965,24.902,23.438,27.832,72.754
1635969086.105,89.355,24.902,27.832,30.273,49.316
1635969086.109,-12.207,23.438,33.691,31.738,-28.809
1635969086.113,-35.156,24.414,37.598,28.809,3.906
1635969086.117,40.527,22.949,34.668,24.414,61.035
1635969086.121,94.238,20.020,19.531,14.648,37.109
1635969086.153,12.695,22.949,33.691,20.020,36.133
1635969086.157,-34.180,22.461,41.016,30.762,5.371
1635969086.161,15.137,23.438,37.598,28.320,14.160
1635969086.165,97.656,23.438,28.320,22.949,37.598
1635969086.169,52.246,20.020,30.273,24.414,2.441
1635969086.173,-32.227,16.113,41.016,29.785,1.465
1635969086.177,-13.672,18.555,31.738,32.715,38.086
1635969086.180,81.543,24.902,25.391,23.926,20.508
1635969086.184,69.824,23.926,36.133,20.996,34.180
1635969086.188,-25.879,19.531,39.551,26.855,11.719
1635969086.192,-35.156,20.020,33.691,22.461,-25.391
1635969086.196,51.270,23.438,21.484,14.160,23.926
1635969086.190,98.145,25.879,24.902,18.066,56.152
1635969086.194,-7.324,27.832,46.387,22.461,40.527
1635969086.198,-42.480,26.855,41.016,18.555,23.438
1635969086.202,21.484,22.461,20.996,16.113,40.039
1635969086.206,88.867,20.020,20.508,14.160,32.715
1635969086.210,16.602,18.066,25.391,15.625,-23.926
1635969086.214,-45.410,16.113,33.203,20.020,-9.766
1635969086.217,-5.371,16.113,33.691,23.438,36.621
1635969086.221,88.867,18.555,13.672,12.207,34.180
1635969086.225,51.758,24.902,20.996,6.836,44.922
1635969086.229,-41.016,30.273,43.457,16.113,41.992
1635969086.233,-23.438,33.691,40.527,16.113,-13.184
1635969086.227,79.102,41.992,38.086,15.625,-3.906
1635969086.231,84.473,40.039,34.668,17.090,15.625
1635969086.235,-24.902,34.668,45.410,13.184,14.648
1635969086.239,-34.180,38.574,54.199,10.742,41.992
1635969086.243,41.016,35.156,40.527,4.395,14.648
1635969086.247,75.684,43.457,38.574,-6.348,51.758
1635969086.251,-33.203,56.641,43.945,-8.789,32.227
1635969086.254,-88.867,65.918,70.312,-12.695,25.879
1635969086.258,-18.066,84.473,73.242,-15.137,65.430
1635969086.262,53.711,87.402,51.270,-30.762,45.410
1635969086.266,-36.621,82.031,55.664,-38.086,36.621
1635969086.270,-116.211,93.750,58.105,-40.527,20.996
1635969086.267,-98.633,102.539,72.266,-71.289,4.883
1635969086.271,-28.809,98.145,68.359,-98.633,27.832
1635969086.275,-60.547,103.516,62.988,-101.562,40.039
1635969086.279,-161.621,117.676,74.707,-105.957,32.227
1635969086.283,-180.664,122.070,71.289,-128.418,33.203
1635969086.287,-109.375,130.859,63.477,-145.020,16.113
1635969086.291,-108.887,140.625,70.312,-159.180,4.395
1635969086.294,-229.492,141.602,85.449,-172.852,17.090
1635969086.298,-264.648,139.160,79.590,-182.617,3.418
1635969086.302,-196.777,131.836,74.707,-191.895,-31.250
1635969086.306,-135.254,131.836,90.332,-198.730,47.363
1635969086.310,-217.285,129.883,106.934,-195.312,86.426
1635969086.340,-263.672,124.023,109.863,-189.941,64.941
1635969086.344,-195.312,122.070,92.285,-179.199,20.020
1635969086.348,-92.773,115.723,71.777,-163.086,43.945
1635969086.352,-138.184,109.863,76.172,-150.391,65.430
1635969086.356,-200.684,102.051,84.961,-130.859,10.742
1635969086.360,-152.832,87.891,76.172,-108.887,18.066
1635969086.364,-45.898,79.102,54.199,-100.098,53.711
1635969086.367,-36.133,69.824,57.129,-80.078,72.754
1635969086.371,-101.074,58.594,67.383,-48.340,59.082
1635969086.375,-78.125,52.246,58.105,-29.785,35.645
1635969086.379,24.902,43.945,37.598,-13.672,34.180
1635969086.383,74.707,35.645,24.902,3.418,48.828
1635969086.361,-11.719,28.809,40.527,14.160,69.824
1635969086.365,-36.621,17.090,40.527,20.996,38.086
1635969086.369,48.340,10.254,25.879,33.691,0.977
1635969086.373,124.023,5.371,7.812,41.992,25.391
1635969086.377,45.410,-0.977,9.766,52.734,37.598
1635969086.381,-9.766,-3.906,16.113,62.988,37.109
1635969086.385,43.457,-9.277,7.324,62.500,47.363
1635969086.388,142.578,-11.230,-4.395,62.012,11.719
1635969086.392,103.027,-10.254,6.348,69.336,6.348
1635969086.396,17.578,-9.766,22.949,82.520,26.367
1635969086.400,41.504,-11.230,20.996,90.332,72.266
1635969086.404,140.137,-16.113,6.836,87.402,82.520
1635969086.434,145.996,-15.137,3.906,93.750,47.852
1635969086.438,53.223,-12.695,7.324,99.121,63.965
1635969086.442,46.875,-10.742,7.324,97.656,32.227
1635969086.446,134.277,-10.742,0.977,100.586,-11.230
1635969086.450,178.711,-14.160,-4.395,101.074,40.039
1635969086.454,85.938,-14.648,6.348,105.469,64.453
1635969086.458,52.246,-16.602,7.812,108.398,46.387
1635969086.461,113.281,-14.648,3.418,107.422,31.250
1635969086.465,184.082,-12.695,-1.953,99.609,30.273
1635969086.469,112.305,-13.672,1.465,110.840,37.109
1635969086.473,39.062,-10.742,8.789,117.188,41.504
1635969086.477,74.219,-8.301,-0.977,107.910,8.301
1635969086.471,162.598,-9.766,-4.883,100.586,25.391
1635969086.475,126.953,-15.137,0.000,98.145,28.809
1635969086.479,41.016,-14.648,12.695,101.562,9.766
1635969086.483,63.477,-8.789,10.254,101.562,39.062
1635969086.487,145.996,-8.789,-4.883,96.680,23.926
1635969086.491,147.461,-3.418,-4.883,91.797,12.207
1635969086.495,54.199,3.418,3.418,96.680,-3.418
1635969086.498,36.133,4.395,16.113,99.121,-18.555
1635969086.502,113.281,3.906,6.348,91.309,4.395
1635969086.506,169.922,2.930,1.465,90.332,16.113
1635969086.510,74.707,1.953,14.648,88.867,29.297
1635969086.514,28.320,1.953,13.184,82.031,90.332
1635969086.508,84.961,0.977,4.883,82.031,78.125
1635969086.512,159.180,0.977,-10.742,75.684,13.672
1635969086.516,97.168,6.348,2.441,77.637,15.137
1635969086.520,32.227,9.766,24.902,84.961,17.578
1635969086.524,63.965,15.625,24.414,81.543,-3.418
1635969086.528,146.484,19.043,10.254,75.195,6.836
1635969086.532,122.559,16.113,5.859,79.590,57.617
1635969086.535,35.645,14.648,23.438,85.938,53.223
1635969086.539,38.086,16.602,25.391,80.566,19.531
1635969086.543,119.141,20.508,8.789,70.801,15.625
1635969086.547,138.672,22.949,7.812,74.707,10.254
1635969086.551,35.156,28.320,19.531,83.984,-4.883
1635969086.546,13.672,34.668,30.273,81.543,17.578
1635969086.550,85.938,30.762,16.113,69.336,27.344
1635969086.554,143.066,30.273,9.766,59.082,34.180
1635969086.558,49.316,29.297,21.484,63.965,27.832
1635969086.562,-9.766,26.855,23.438,62.988,11.719
1635969086.566,47.852,31.738,20.996,56.641,2.441
1635969086.570,135.742,31.250,12.207,52.734,49.805
1635969086.573,74.707,31.250,24.902,55.176,63.477
1635969086.577,-12.695,28.809,28.809,57.129,30.273
1635969086.581,10.742,23.926,22.949,53.223,43.457
1635969086.585,99.609,23.438,22.461,47.363,26.855
1635969086.589,84.961,22.949,26.855,41.016,26.855
1635969086.602,-10.742,24.902,35.156,39.551,26.855
1635969086.606,-21.484,22.461,29.785,39.062,-2.930
1635969086.610,60.059,21.973,21.484,34.668,-23.926
1635969086.614,98.145,22.949,27.832,30.762,12.695
1635969086.618,-3.906,24.902,43.945,31.738,32.715
1635969086.622,-42.969,28.809,41.992,34.668,22.949
1635969086.626,25.879,27.344,24.414,29.785,40.527
1635969086.629,102.539,24.414,27.344,23.926,37.109
1635969086.633,32.227,24.414,47.852,29.785,24.902
1635969086.637,-28.809,26.367,54.688,40.039,6.348
1635969086.641,12.207,25.879,44.922,36.133,33.203
1635969086.645,98.145,23.438,20.508,22.461,41.504
1635969086.639,61.035,23.926,30.762,23.926,-1.465
1635969086.643,-20.996,28.809,54.199,35.156,10.254
1635969086.647,-0.488,32.715,52.246,40.039,40.039
1635969086.651,88.379,29.297,28.809,29.297,-5.371
1635969086.655,89.844,28.320,28.809,22.949,-30.273
1635969086.659,-3.906,30.762,48.340,31.250,10.254
1635969086.663,-14.160,30.762,46.387,34.180,66.406
1635969086.666,69.336,30.273,34.668,24.414,34.180
1635969086.670,110.840,33.203,16.113,19.531,-7.324
1635969086.674,19.531,37.598,29.785,28.320,2.930
1635969086.678,-19.043,37.109,45.898,34.668,23.438
1635969086.682,39.062,34.180,37.598,32.715,56.641
1635969086.714,122.559,32.227,25.879,29.785,32.227
1635969086.718,52.734,33.691,23.438,30.273,43.457
1635969086.722,-23.926,37.598,37.109,30.762,25.391
1635969086.726,14.160,37.109,40.527,32.715,-3.906
1635969086.730,104.004,31.738,29.297,20.508,47.852
1635969086.734,73.730,32.227,30.762,17.578,71.289
1635969086.738,-25.391,37.109,32.715,24.902,45.898
1635969086.741,-15.625,39.062,34.180,19.531,5.371
1635969086.745,77.637,36.133,31.250,15.137,24.902
1635969086.749,92.285,34.668,26.367,17.090,13.672
1635969086.753,-3.906,36.621,33.203,23.926,14.160
1635969086.757,-30.762,31.250,27.344,20.996,43.457
1635969086.752,39.551,29.297,18.066,11.230,53.223
1635969086.756,90.332,32.227,14.160,7.324,54.688
1635969086.760,0.977,32.227,29.297,16.602,49.316
1635969086.764,-43.945,27.832,29.785,17.578,29.297
1635969086.768,6.348,25.391,19.531,11.230,12.207
1635969086.772,86.426,23.926,20.996,10.254,-3.906
1635969086.776,33.691,22.949,26.367,11.230,-8.789
1635969086.779,-43.945,19.531,36.621,15.137,-26.855
1635969086.783,-14.648,16.602,30.273,19.043,1.465
1635969086.787,89.355,20.020,19.531,19.531,46.387
1635969086.791,78.125,22.949,28.320,21.973,65.430
1635969086.795,-18.555,20.508,36.621,26.855,83.008
1635969086.789,-23.926,17.578,31.250,24.902,3.418
1635969086.793,51.270,15.137,12.695,14.648,-2.441
1635969086.797,75.195,15.137,9.277,10.254,34.668
1635969086.801,-19.043,20.020,23.926,18.066,-12.207
1635969086.805,-42.480,20.020,24.902,20.020,-8.789
1635969086.809,34.180,18.066,17.578,21.484,72.754
1635969086.813,101.074,19.531,2.441,20.020,56.641
1635969086.816,23.438,20.996,20.508,20.996,43.945
1635969086.820,-36.621,20.996,39.062,29.297,27.344
1635969086.824,9.277,19.043,32.715,32.715,1.953
1635969086.828,95.703,20.020,18.066,22.461,38.086
1635969086.832,44.434,23.438,20.996,23.438,107.422
1635969086.827,-32.715,23.926,40.039,28.320,70.312
1635969086.831,-15.137,20.996,42.480,26.855,-2.441
1635969086.835,74.219,21.484,29.785,23.926,-3.418
1635969086.839,73.730,25.391,24.414,22.949,18.066
1635969086.843,-27.344,24.414,39.551,24.414,20.996
1635969086.847,-38.574,26.367,42.969,27.344,-13.672
1635969086.851,48.828,29.785,32.227,24.902,12.695
1635969086.854,89.355,26.855,28.320,17.578,6.836
1635969086.858,-9.277,29.297,35.645,25.391,24.902
1635969086.862,-48.340,34.668,40.039,28.809,35.156
1635969086.866,19.043,30.762,34.668,24.414,-9.766
1635969086.870,93.262,30.273,20.508,21.484,-20.508
1635969086.883,23.438,32.715,27.832,28.809,16.602
1635969086.887,-35.645,28.809,30.273,30.273,30.273
1635969086.891,7.324,27.344,26.855,23.926,23.926
1635969086.895,94.727,28.809,23.926,20.996,23.438
1635969086.899,52.246,26.855,25.879,29.297,12.207
1635969086.903,-33.203,27.344,35.156,35.645,7.324
1635969086.907,-16.113,29.297,20.508,23.926,6.348
1635969086.910,78.125,31.738,16.113,20.996,0.000
1635969086.914,86.426,33.203,33.203,23.438,52.734
1635969086.918,-16.602,32.715,41.504,29.297,67.383
1635969086.922,-33.203,30.762,39.551,34.180,46.387
1635969086.926,45.898,25.391,25.391,25.879,41.992
1635969086.921,100.098,25.879,21.484,24.902,14.648
1635969086.925,8.789,30.273,38.574,37.109,20.508
1635969086.929,-30.762,34.668,42.480,41.992,28.320
1635969086.933,25.391,35.645,28.320,38.574,-16.602
1635969086.937,103.027,34.668,20.508,27.832,24.902
1635969086.941,38.086,36.133,25.391,22.949,40.527
1635969086.945,-39.551,35.156,30.762,23.438,2.441
1635969086.948,-2.441,32.227,33.203,21.973,2.441
1635969086.952,85.938,27.832,16.113,15.137,13.184
1635969086.956,52.246,29.297,17.090,10.254,24.414
1635969086.960,-41.504,30.273,39.062,18.066,40.039
1635969086.964,-28.809,30.762,32.715,22.949,-10.254
1635969086.977,67.383,35.156,24.414,20.508,-2.930
1635969086.981,88.379,31.250,19.531,18.066,75.684
1635969086.985,-12.207,31.738,29.297,23.438,55.176
1635969086.989,-34.668,33.691,34.668,27.344,52.734
1635969086.993,38.574,31.250,21.973,23.926,41.016
1635969086.997,95.215,31.250,19.043,22.949,13.184
1635969087.001,3.418,31.738,29.297,32.227,14.160
1635969087.004,-41.992,33.203,42.969,33.203,18.555
1635969087.008,13.184,33.203,40.039,28.320,50.293
1635969087.012,96.191,31.738,28.320,25.879,37.598
1635969087.016,43.945,33.203,32.715,28.809,39.551
1635969087.020,-29.785,38.086,37.598,30.762,-6.348
1635969087.014,3.418,40.039,39.551,24.902,-22.461
1635969087.018,88.379,38.574,26.367,17.578,18.066
1635969087.022,72.754,37.598,22.461,17.090,-8.301
1635969087.026,-15.137,38.574,36.621,27.344,19.043
1635969087.030,-18.555,40.527,38.574,26.855,47.852
1635969087.034,61.523,35.156,25.391,24.414,49.316
1635969087.038,92.285,35.645,18.555,21.484,7.812
1635969087.041,-8.301,42.480,38.086,24.902,12.695
1635969087.045,-34.668,37.109,37.109,36.133,-1.465
1635969087.049,37.598,32.227,26.855,29.785,-29.297
1635969087.053,111.328,31.250,27.832,21.484,23.438
1635969087.057,29.297,29.297,35.156,28.809,57.129
1635969087.071,-43.945,31.738,47.363,33.691,40.527
1635969087.075,-0.977,36.133,40.527,33.203,41.016
1635969087.079,97.168,38.086,27.832,28.809,33.691
1635969087.083,59.570,41.016,36.133,31.738,26.367
1635969087.087,-21.484,42.480,46.875,39.551,47.852
1635969087.091,-0.488,38.086,39.062,41.504,43.945
1635969087.095,82.031,33.203,19.043,29.297,40.527
1635969087.098,85.449,34.668,25.879,23.438,60.059
1635969087.102,-4.883,39.062,48.340,34.668,83.984
1635969087.106,-15.137,36.621,48.828,33.691,75.684
1635969087.110,59.082,28.320,31.250,22.949,44.922
1635969087.114,96.191,25.879,18.555,12.695,47.363
1635969087.108,8.789,30.762,35.156,16.602,24.414
1635969087.112,-22.949,35.156,45.410,26.367,-40.527
1635969087.116,37.109,34.180,37.109,22.949,-5.371
1635969087.120,105.469,32.715,24.414,15.625,57.617
1635969087.124,38.086,34.180,31.738,20.996,13.672
1635969087.128,-25.391,34.668,41.504,30.273,1.465
1635969087.132,9.277,35.645,29.785,32.715,54.688
1635969087.135,95.703,39.062,23.926,30.273,125.488
1635969087.139,62.500,40.527,24.902,24.902,104.004
1635969087.143,-26.855,36.621,33.203,25.391,39.062
1635969087.147,-13.672,32.227,45.898,25.879,41.992
1635969087.151,72.754,27.832,28.809,20.020,30.762
1635969087.167,75.684,23.438,20.508,16.113,-2.441
1635969087.171,-29.297,20.020,28.320,21.484,-14.160
1635969087.175,-40.527,19.531,34.180,21.484,-24.902
1635969087.179,38.086,20.508,29.785,16.602,-11.230
1635969087.183,92.773,24.414,21.973,20.020,39.062
1635969087.187,8.789,32.227,31.738,33.691,41.504
1635969087.191,-41.504,31.738,28.809,35.645,35.156
1635969087.194,14.160,28.320,25.879,25.879,69.824
1635969087.198,96.191,26.367,23.926,19.531,53.223
1635969087.202,32.715,23.926,22.949,20.020,-13.672
1635969087.206,-41.016,23.438,33.203,19.531,1.465
1635969087.210,-13.672,21.973,34.668,14.160,44.922
1635969087.204,73.242,20.996,29.297,7.812,34.668
1635969087.208,58.105,21.973,32.715,7.324,-4.883
1635969087.212,-34.668,26.367,47.363,18.555,0.488
1635969087.216,-33.691,25.879,44.922,14.160,57.129
1635969087.220,58.105,25.879,28.809,6.836,88.379
1635969087.224,91.309,28.809,26.367,19.531,56.641
1635969087.228,5.859,30.273,33.203,34.668,39.062
1635969087.231,-16.113,35.645,29.297,29.297,65.430
1635969087.235,42.480,34.668,14.648,13.184,27.832
1635969087.239,109.863,32.715,14.648,14.160,21.973
1635969087.243,36.133,41.016,34.668,23.926,13.184
1635969087.247,-29.785,36.133,37.598,19.043,0.977
1635969087.258,15.137,30.273,33.203,17.578,85.938
1635969087.262,92.773,31.250,15.137,17.090,73.730
1635969087.266,35.645,31.250,17.578,12.695,-13.184
1635969087.270,-41.016,35.645,43.457,20.508,41.504
1635969087.274,-12.207,36.621,40.527,27.832,42.969
1635969087.278,77.637,36.621,24.414,19.043,30.762
1635969087.282,66.895,36.133,16.602,14.160,51.270
1635969087.285,-26.367,34.180,29.785,20.020,24.414
1635969087.289,-28.320,31.250,39.551,22.461,18.555
1635969087.293,56.641,32.715,30.762,23.438,29.785
1635969087.297,91.797,34.180,28.809,24.414,52.246
1635969087.301,3.418,33.203,34.668,23.438,19.531
1635969087.298,-24.902,33.691,45.410,25.391,-9.277
1635969087.302,37.109,32.227,36.133,24.414,21.484
1635969087.306,104.980,30.273,20.996,19.043,32.715
1635969087.310,33.691,31.738,37.598,25.879,74.707
1635969087.314,-29.785,32.715,46.387,28.809,93.262
1635969087.318,7.324,33.691,37.109,25.879,38.574
1635969087.322,100.586,34.180,23.926,22.461,10.742
1635969087.325,71.777,33.691,33.691,28.809,-5.859
1635969087.329,-26.855,28.320,40.039,31.250,-20.020
1635969087.333,-17.578,24.414,33.203,21.484,30.273
1635969087.337,78.125,26.367,26.855,16.113,76.172
1635969087.341,77.637,26.855,22.949,15.625,58.105
1635969087.353,-18.066,26.855,34.180,21.484,12.695
1635969087.357,-25.391,26.855,35.645,21.973,-16.113
1635969087.361,50.781,25.879,28.320,20.020,15.625
1635969087.365,95.703,25.391,23.926,18.555,13.184
1635969087.369,10.742,22.461,39.062,25.391,9.766
1635969087.373,-32.227,19.531,45.410,30.762,75.195
1635969087.377,26.855,23.926,24.902,26.367,23.926
1635969087.380,102.051,23.438,21.973,18.066,1.953
1635969087.384,37.109,24.902,39.062,20.996,60.059
1635969087.388,-34.180,28.320,46.387,27.832,25.879
1635969087.392,-11.230,28.320,41.016,30.762,12.207
1635969087.396,74.219,26.855,21.973,25.391,13.672
1635969087.427,51.758,26.367,26.367,12.207,18.066
1635969087.431,-40.039,28.809,49.316,16.113,9.766
1635969087.435,-36.133,29.785,48.828,17.090,18.066
1635969087.439,52.246,25.879,26.855,9.277,22.461
1635969087.443,76.172,24.902,20.508,5.371,-4.883
1635969087.447,-12.695,29.297,38.086,12.207,29.785
1635969087.451,-37.598,25.879,39.062,18.555,34.668
1635969087.454,33.691,23.438,29.785,13.672,42.480
1635969087.458,88.867,23.926,19.531,12.695,50.781
1635969087.462,6.348,23.438,28.809,18.555,28.809
1635969087.466,-36.621,27.344,38.086,16.602,7.812
1635969087.470,14.648,27.344,30.762,15.137,30.273
1635969087.448,97.656,22.949,26.855,15.137,66.895
1635969087.452,43.457,20.508,28.809,19.043,44.922
1635969087.456,-29.297,19.043,39.551,23.926,16.113
1635969087.460,-2.441,20.020,38.574,19.531,32.227
1635969087.464,83.496,20.996,26.367,18.555,9.277
1635969087.468,68.848,22.949,25.879,25.879,44.434
1635969087.472,-31.250,26.367,30.273,28.809,40.527
1635969087.475,-30.273,28.320,39.062,29.785,-32.227
1635969087.479,53.223,24.414,33.203,26.855,-2.441
1635969087.483,78.125,21.973,26.855,18.555,41.992
1635969087.487,-11.230,24.414,38.574,27.832,19.531
1635969087.491,-37.109,24.902,36.621,34.668,-22.949
1635969087.485,29.785,24.902,33.691,30.762,-3.418
1635969087.489,99.609,22.949,28.320,33.203,36.133
1635969087.493,29.785,20.020,38.086,38.086,52.246
1635969087.497,-26.855,17.578,43.457,33.203,68.848
1635969087.501,10.742,18.555,25.391,30.762,22.949
1635969087.505,101.074,20.020,20.996,28.320,11.719
1635969087.509,62.500,21.973,30.762,32.715,40.527
1635969087.512,-18.555,18.066,40.039,39.062,20.996
1635969087.516,5.859,11.719,34.668,42.480,-17.578
1635969087.520,95.703,15.625,28.809,34.668,-13.672
1635969087.524,90.332,19.531,39.551,27.832,70.801
1635969087.528,0.488,15.625,46.875,36.621,45.410
1635969087.539,-0.488,13.672,47.363,41.504,3.418
1635969087.543,68.848,12.207,24.414,30.762,42.480
1635969087.547,113.281,15.625,15.137,23.926,43.945
1635969087.551,26.367,17.090,41.504,27.832,35.156
1635969087.555,-18.066,15.137,41.992,28.809,45.898
1635969087.559,39.062,21.484,25.879,27.344,24.902
1635969087.563,98.145,21.484,15.137,18.555,-16.602
1635969087.566,27.832,21.484,28.809,24.414,33.691
1635969087.570,-28.320,26.367,38.086,31.250,28.320
1635969087.574,13.672,26.367,35.645,28.809,-36.621
1635969087.578,100.098,24.414,27.344,26.855,25.879
1635969087.582,60.059,22.461,22.949,17.090,41.504
1635969087.577,-24.414,25.391,35.645,22.461,-19.531
1635969087.581,-9.277,32.715,34.180,27.344,-0.488
1635969087.585,74.219,32.715,19.531,17.578,21.973
1635969087.589,85.449,32.715,16.113,20.508,25.391
1635969087.593,-14.160,37.109,28.809,25.391,65.918
1635969087.597,-35.645,31.250,28.809,21.484,28.809
1635969087.601,47.363,31.250,19.043,19.531,11.719
1635969087.604,101.562,34.180,16.602,16.602,48.828
1635969087.608,10.254,36.621,20.996,18.555,61.035
1635969087.612,-38.086,41.992,25.391,15.137,40.039
1635969087.616,13.672,33.691,23.926,11.719,36.621
1635969087.620,89.844,25.391,19.043,8.789,73.242
1635969087.633,30.762,26.367,28.809,12.207,55.664
1635969087.637,-40.527,25.879,29.785,19.531,29.785
1635969087.641,-11.719,29.785,28.320,22.461,23.438
1635969087.645,80.078,30.762,20.508,18.066,13.672
1635969087.649,55.664,29.297,17.090,19.043,20.508
1635969087.653,-34.668,27.344,31.738,26.855,39.062
1635969087.657,-30.273,24.414,20.508,19.043,32.715
1635969087.660,53.223,23.438,11.230,10.742,-5.371
1635969087.664,71.777,26.367,20.020,12.207,20.020
1635969087.668,-23.926,27.832,32.227,22.461,42.969
1635969087.672,-48.828,27.832,32.227,29.297,50.781
1635969087.676,21.484,32.227,20.020,25.391,67.871
1635969087.690,92.773,30.762,22.949,20.996,32.227
1635969087.694,12.695,23.926,34.668,22.461,7.812
1635969087.698,-47.363,22.949,36.133,23.438,52.246
1635969087.702,5.371,23.926,27.344,22.461,66.895
1635969087.706,88.867,26.367,15.625,17.090,35.156
1635969087.710,34.668,30.273,20.996,16.602,29.785
1635969087.714,-43.457,26.367,36.621,20.020,10.254
1635969087.717,-17.578,26.367,36.133,19.531,22.461
1635969087.721,71.289,24.414,20.020,12.695,33.203
1635969087.725,64.941,20.020,25.391,12.207,9.766
1635969087.729,-24.414,23.926,44.922,19.043,12.695
1635969087.733,-25.391,27.344,44.922,24.414,41.992
1635969087.764,57.617,19.043,34.180,21.484,65.918
1635969087.768,88.867,20.996,26.367,15.625,69.824
1635969087.772,-6.836,33.203,41.992,24.902,58.594
1635969087.776,-36.621,37.598,49.805,28.809,18.555
1635969087.780,31.738,39.551,36.621,23.926,10.254
1635969087.784,89.844,37.598,27.344,20.020,33.203
1635969087.788,9.277,38.574,35.645,18.555,68.848
1635969087.791,-32.715,39.062,47.363,29.297,55.176
1635969087.795,14.160,40.039,47.852,30.762,15.137
1635969087.799,83.984,41.504,38.086,14.160,14.160
1635969087.803,44.922,38.086,40.039,19.043,62.500
1635969087.807,-47.852,40.039,41.016,24.414,52.246
1635969087.783,-32.715,42.969,41.504,20.020,6.836
1635969087.787,68.359,42.480,35.156,20.020,4.395
1635969087.791,80.566,43.457,32.227,19.531,13.184
