timestamps,TP9,AF7,AF8,TP10,Right AUX
1635969597.900,83.984,25.391,26.367,13.184,48.340
1635969597.904,39.551,20.508,27.832,17.578,52.246
1635969597.908,-17.578,13.184,35.645,17.578,34.180
1635969597.912,-6.348,14.648,30.273,16.602,40.527
1635969597.916,55.176,17.090,15.137,14.648,48.828
1635969597.920,41.504,16.113,27.832,12.695,46.875
1635969597.924,-15.137,15.625,34.180,20.020,29.297
1635969597.927,-6.836,18.555,31.250,14.648,6.836
1635969597.931,47.852,19.043,30.762,4.883,28.320
1635969597.935,53.711,14.160,20.020,5.371,58.105
1635969597.939,-2.930,15.137,20.996,13.184,41.992
1635969597.943,-11.230,17.578,22.461,16.113,15.137
1635969597.945,39.062,18.555,19.531,22.949,8.789
1635969597.949,8.301,25.391,22.949,38.574,15.137
1635969597.953,36.621,31.250,23.438,44.922,33.203
1635969597.957,86.914,23.926,16.602,37.109,46.875
1635969597.961,54.688,21.484,22.949,34.180,31.738
1635969597.964,3.418,22.461,23.438,40.527,22.949
1635969597.968,18.066,20.508,15.137,46.387,35.645
1635969597.972,70.312,18.555,15.625,40.039,35.645
1635969597.976,60.547,21.484,20.508,30.273,59.570
1635969597.980,6.836,24.902,25.391,35.156,77.637
1635969597.996,1.953,26.367,25.391,41.016,38.574
1635969598.000,41.504,20.996,20.020,36.133,35.645
1635969598.004,52.246,20.020,20.508,20.508,13.672
1635969598.008,4.395,22.949,34.180,19.531,28.809
1635969598.012,-7.324,23.438,31.250,23.926,15.625
1635969598.016,19.043,23.438,16.113,17.578,-5.371
1635969598.020,54.688,26.855,10.742,11.719,32.227
1635969598.023,23.926,28.320,23.926,16.113,47.852
1635969598.027,-2.441,27.344,32.715,18.066,33.203
1635969598.031,20.020,24.902,21.973,18.066,32.715
1635969598.035,54.688,28.320,15.137,16.113,74.219
1635969598.039,23.926,29.297,27.832,9.766,47.363
1635969598.034,-10.254,24.902,40.039,22.461,33.691
1635969598.038,8.789,25.391,37.598,26.367,40.527
1635969598.042,51.758,24.414,25.879,9.277,24.902
1635969598.046,42.480,21.973,21.484,11.719,34.668
1635969598.050,-6.348,24.414,32.227,26.367,14.648
1635969598.054,-3.418,27.832,33.203,30.273,-39.062
1635969598.058,34.668,25.391,18.066,24.414,5.859
1635969598.061,53.711,23.926,11.719,24.902,35.645
1635969598.065,11.230,25.391,19.043,32.227,-10.254
1635969598.069,-1.953,28.320,21.973,27.344,23.438
1635969598.073,22.461,26.855,20.996,27.832,55.664
1635969598.077,63.965,24.414,20.996,22.461,80.566
1635969598.107,36.621,30.273,25.391,19.531,60.547
1635969598.111,-4.395,35.645,22.949,29.785,17.090
1635969598.115,6.836,29.297,13.672,25.391,19.043
1635969598.119,58.105,26.855,13.184,21.973,21.484
1635969598.123,45.410,27.832,21.484,33.691,15.625
1635969598.127,-0.488,32.715,27.832,36.133,52.734
1635969598.131,-8.301,30.762,21.973,22.461,19.531
1635969598.134,31.738,22.949,11.230,10.742,-40.039
1635969598.138,49.805,28.320,20.508,11.230,21.973
1635969598.142,4.395,29.297,29.297,19.043,39.062
1635969598.146,0.000,26.367,24.414,19.531,17.578
1635969598.150,43.457,26.855,23.926,16.113,36.621
1635969598.144,80.566,28.320,23.438,12.695,16.602
1635969598.148,27.832,30.273,33.203,24.414,11.230
1635969598.152,-6.348,29.297,41.992,34.180,6.348
1635969598.156,24.902,27.832,33.691,30.762,19.531
1635969598.160,75.684,30.273,22.949,29.785,31.738
1635969598.164,41.504,28.320,31.250,28.809,10.742
1635969598.168,-4.395,26.855,38.574,21.973,45.410
1635969598.171,10.742,30.762,29.297,20.996,8.789
1635969598.175,61.035,28.809,16.113,15.137,22.461
1635969598.179,48.828,27.344,20.020,10.742,28.320
1635969598.183,9.277,27.832,29.297,16.602,1.953
1635969598.187,8.301,27.832,25.879,14.160,4.883
1635969598.181,41.016,31.738,22.461,17.090,8.301
1635969598.185,48.340,35.156,23.438,13.672,49.316
1635969598.189,-0.977,29.297,39.062,10.254,39.551
1635969598.193,-9.766,22.461,45.410,18.555,29.297
1635969598.197,27.832,26.367,31.250,16.602,59.570
1635969598.201,69.336,30.762,26.855,15.137,68.848
1635969598.205,22.461,32.715,27.344,20.020,6.836
1635969598.208,-10.254,33.691,33.203,18.555,-13.672
1635969598.212,10.742,34.668,37.109,21.973,36.621
1635969598.216,54.199,34.668,28.809,12.207,43.945
1635969598.220,39.062,33.203,31.250,13.184,5.371
1635969598.224,-11.230,31.738,36.621,24.414,33.691
1635969598.220,-7.812,34.180,27.832,22.949,45.410
1635969598.224,41.016,36.133,19.043,16.602,33.691
1635969598.228,41.992,37.109,31.738,15.137,74.219
1635969598.232,-1.465,32.227,37.598,22.949,44.434
1635969598.236,-5.371,29.785,30.762,26.855,13.672
1635969598.240,45.410,37.109,25.391,23.926,60.547
1635969598.244,72.754,39.062,17.090,21.484,33.691
1635969598.247,15.625,33.203,29.297,28.809,15.137
1635969598.251,-16.113,31.250,30.273,22.461,2.930
1635969598.255,20.996,33.691,15.137,13.672,-27.344
1635969598.259,68.848,34.180,10.742,13.672,41.504
1635969598.263,19.043,34.180,18.555,16.113,78.125
1635969598.275,-0.488,38.574,28.809,27.344,48.828
1635969598.279,21.973,39.551,27.344,23.926,58.594
1635969598.283,67.871,32.715,16.602,15.625,40.039
1635969598.287,48.340,30.273,24.902,27.344,-4.883
1635969598.291,-9.277,31.250,38.086,29.297,8.301
1635969598.295,5.859,35.645,37.109,28.320,16.602
1635969598.299,63.965,37.598,21.484,31.738,34.180
1635969598.302,62.012,34.180,26.367,31.738,38.086
1635969598.306,6.836,32.227,46.387,37.109,41.504
1635969598.310,7.324,29.785,48.828,44.922,41.016
1635969598.314,48.828,25.879,45.410,38.086,37.109
1635969598.318,67.871,26.855,39.551,20.508,48.828
1635969598.312,10.742,31.250,40.527,33.203,74.219
1635969598.316,-12.207,28.809,41.992,46.387,41.504
1635969598.320,24.414,28.809,34.180,33.691,13.184
1635969598.324,77.637,30.273,22.949,29.785,66.895
1635969598.328,34.668,26.367,28.320,40.527,35.645
1635969598.332,-5.859,22.461,33.691,43.945,0.488
1635969598.336,15.625,24.414,21.973,35.156,30.273
1635969598.339,62.012,24.414,12.695,26.367,91.309
1635969598.343,47.363,23.438,13.184,28.320,36.133
1635969598.347,-10.254,26.855,20.508,26.855,-26.367
1635969598.351,-5.859,26.855,23.438,30.762,-9.766
1635969598.355,48.828,27.344,12.695,25.391,49.805
1635969598.369,58.105,29.297,27.344,22.461,70.312
1635969598.373,5.371,21.484,39.551,33.203,7.324
1635969598.377,-10.254,18.555,33.691,36.133,-18.555
1635969598.381,31.250,23.438,30.273,34.180,-0.977
1635969598.385,73.730,27.344,24.414,33.203,40.039
1635969598.389,34.668,30.273,21.973,39.551,7.812
1635969598.393,-2.441,27.832,20.020,34.180,-16.602
1635969598.396,22.949,31.250,14.160,25.879,24.414
1635969598.400,70.312,37.109,14.648,31.738,38.574
1635969598.404,30.273,35.156,23.438,28.809,64.941
1635969598.408,-12.207,31.250,24.414,22.461,65.918
1635969598.412,10.254,31.738,18.555,20.020,-2.441
1635969598.407,63.477,35.645,17.578,13.184,-1.953
1635969598.411,46.387,38.086,17.578,17.578,36.621
1635969598.415,-3.906,33.203,23.438,28.809,60.547
1635969598.419,12.695,28.320,28.809,36.621,11.719
1635969598.423,62.012,28.320,27.832,39.551,31.738
1635969598.427,71.777,30.762,24.902,33.203,31.738
1635969598.431,16.602,29.785,26.367,24.414,-8.789
1635969598.434,-20.020,28.809,36.133,22.949,0.977
1635969598.438,14.648,29.297,29.785,24.414,-2.930
1635969598.442,62.988,25.391,24.414,21.973,-12.207
1635969598.446,21.484,25.879,41.016,28.809,-17.578
1635969598.450,-8.301,28.809,41.504,33.691,19.043
1635969598.463,21.484,27.344,28.320,26.855,50.781
1635969598.467,62.988,24.902,21.973,16.602,59.570
1635969598.471,41.504,28.809,34.180,25.391,41.016
1635969598.475,-0.488,33.691,45.410,33.691,0.000
1635969598.479,3.906,33.691,37.598,25.391,36.621
1635969598.483,67.871,33.203,22.461,23.926,65.430
1635969598.487,62.500,38.574,23.926,28.809,30.762
1635969598.490,-3.418,34.180,36.133,26.855,-21.484
1635969598.494,-4.883,25.391,35.645,28.809,-15.137
1635969598.498,41.992,23.926,36.133,27.344,5.859
1635969598.502,64.453,24.902,39.062,17.090,42.969
1635969598.506,12.207,31.250,36.621,24.414,67.383
1635969598.500,-1.465,31.250,40.527,28.809,31.250
1635969598.504,30.273,27.344,34.668,21.484,38.086
1635969598.508,58.594,30.273,21.484,22.949,61.035
1635969598.512,14.160,32.227,26.855,21.973,29.297
1635969598.516,-22.949,33.203,31.738,16.602,-3.418
1635969598.520,3.906,33.203,24.902,23.438,12.207
1635969598.524,55.176,28.809,13.672,14.648,34.180
1635969598.527,31.738,29.785,27.344,13.184,15.625
1635969598.531,-1.953,36.621,42.480,26.855,27.344
1635969598.535,4.883,33.691,33.691,22.949,52.246
1635969598.539,46.387,27.344,28.320,13.184,38.574
1635969598.543,48.340,27.344,33.203,15.137,21.973
1635969598.556,0.000,28.320,36.133,25.391,24.414
1635969598.560,0.488,27.344,26.367,32.227,44.922
1635969598.564,42.969,27.832,21.484,29.785,46.387
1635969598.568,74.219,30.273,22.949,29.297,62.988
1635969598.572,22.461,32.227,29.785,35.156,48.828
1635969598.576,-6.836,33.203,38.086,29.297,-1.953
1635969598.580,26.855,33.203,22.949,14.648,-8.789
1635969598.583,70.312,33.203,15.137,9.277,25.391
1635969598.587,39.551,34.180,27.344,21.484,35.645
1635969598.591,12.207,33.691,30.273,26.367,38.574
1635969598.595,28.809,33.203,24.414,32.715,62.988
1635969598.599,64.453,29.297,15.625,30.273,39.062
1635969598.594,44.434,28.809,21.484,18.555,-16.602
1635969598.598,1.953,31.250,31.250,25.879,2.930
1635969598.602,4.883,33.203,30.762,31.738,17.090
1635969598.606,40.527,33.203,24.902,27.344,45.898
1635969598.610,42.480,32.715,28.320,23.926,61.035
1635969598.614,-14.160,36.621,36.133,26.855,-10.742
1635969598.618,-16.113,35.645,35.156,26.855,-20.996
1635969598.621,32.227,30.762,27.832,24.414,20.996
1635969598.625,65.430,28.320,19.043,18.555,79.102
1635969598.629,18.066,32.227,27.832,17.578,93.750
1635969598.633,-5.859,34.668,35.645,22.949,21.973
1635969598.637,14.160,28.809,27.344,19.531,-3.418
1635969598.650,46.387,28.320,18.555,9.277,15.137
1635969598.654,26.367,31.738,21.973,8.789,35.645
1635969598.658,-9.277,30.273,35.645,6.348,16.602
1635969598.662,7.324,30.762,42.480,1.465,13.184
1635969598.666,54.688,30.273,38.086,0.977,43.457
1635969598.670,43.457,31.738,40.527,6.836,24.414
1635969598.674,-2.930,28.320,44.434,14.160,-23.926
1635969598.677,0.000,26.855,48.828,23.926,3.906
1635969598.681,43.457,26.367,45.410,27.832,61.523
1635969598.685,56.641,24.902,46.875,25.879,12.695
1635969598.689,14.648,28.809,57.617,36.621,28.809
1635969598.693,1.465,31.250,52.246,39.551,40.039
1635969598.706,27.832,27.832,40.527,31.738,0.488
1635969598.710,66.895,24.902,35.645,29.785,53.711
1635969598.714,31.738,25.879,45.410,34.668,70.312
1635969598.718,1.953,24.902,50.293,35.645,62.012
1635969598.722,24.902,23.926,37.598,26.855,22.461
1635969598.726,72.266,22.949,31.250,21.973,16.113
1635969598.730,46.875,22.949,32.227,26.367,43.945
1635969598.733,-0.488,24.414,41.016,27.344,16.113
1635969598.737,7.812,25.879,37.598,30.273,20.508
1635969598.741,61.523,26.855,22.461,26.855,25.391
1635969598.745,54.688,25.879,41.504,18.066,69.336
1635969598.749,-5.859,26.855,52.734,21.973,80.566
1635969598.744,1.953,30.273,41.504,32.227,5.859
1635969598.748,50.293,30.273,29.785,29.785,17.090
1635969598.752,75.684,31.250,31.738,22.949,59.570
1635969598.756,25.879,28.320,44.434,28.320,28.809
1635969598.760,8.301,26.367,41.016,24.414,12.207
1635969598.764,36.621,27.344,26.367,20.996,4.395
1635969598.768,70.801,25.879,17.090,17.090,22.949
1635969598.771,39.062,30.273,28.809,14.648,29.297
1635969598.775,5.371,26.855,34.668,25.391,8.789
1635969598.779,23.926,22.949,20.020,29.297,8.789
1635969598.783,69.336,26.367,9.277,23.438,46.875
1635969598.787,45.898,29.297,9.766,29.785,6.836
1635969598.781,-0.977,33.691,23.438,34.668,15.625
1635969598.785,9.277,28.320,34.180,36.133,68.848
1635969598.789,65.430,24.414,22.949,39.062,21.973
1635969598.793,65.918,28.320,15.137,30.273,46.875
1635969598.797,10.254,25.879,26.367,22.949,57.617
1635969598.801,3.906,24.902,35.156,24.414,38.086
1635969598.805,31.738,24.414,29.785,21.973,16.602
1635969598.808,53.711,24.902,29.297,12.207,27.832
1635969598.812,10.254,26.367,33.691,20.996,-14.160
1635969598.816,-18.555,27.344,31.738,20.996,-31.738
1635969598.820,6.836,30.762,39.551,13.184,44.922
1635969598.824,52.246,30.762,38.574,20.996,61.523
1635969598.838,21.973,29.785,44.434,14.160,46.387
1635969598.842,-11.230,35.156,56.152,4.883,0.000
1635969598.846,-4.395,38.574,52.246,4.883,3.418
1635969598.850,38.086,41.016,40.039,-6.348,79.590
1635969598.854,13.184,43.457,36.133,-15.625,78.125
1635969598.858,-46.875,44.434,38.574,-15.137,17.090
1635969598.862,-48.340,52.246,43.945,-25.391,12.695
1635969598.865,-20.020,71.289,48.340,-42.969,43.945
1635969598.869,-25.879,90.820,46.875,-60.547,15.137
1635969598.873,-88.379,98.633,53.223,-79.590,-15.137
1635969598.877,-121.094,123.535,61.035,-99.121,-13.672
1635969598.881,-118.164,144.531,64.941,-125.000,-12.695
1635969598.875,-117.188,153.320,77.148,-161.621,37.109
1635969598.879,-187.988,166.504,97.168,-187.988,71.289
1635969598.883,-236.328,170.410,103.027,-210.938,10.742
1635969598.887,-227.539,165.039,101.562,-229.492,-10.742
1635969598.891,-199.707,158.691,99.609,-244.629,25.879
1635969598.895,-223.145,159.668,114.258,-247.070,6.348
1635969598.899,-249.023,155.762,125.000,-239.746,1.465
1635969598.902,-233.398,145.508,110.840,-224.121,14.648
1635969598.906,-172.852,140.137,94.727,-202.148,39.062
1635969598.910,-168.945,133.789,97.656,-190.918,47.363
1635969598.914,-208.496,124.023,112.793,-170.898,72.266
1635969598.918,-186.035,114.746,109.375,-153.320,71.777
1635969598.932,-124.512,110.840,99.121,-139.160,25.879
1635969598.936,-99.121,107.422,93.262,-114.258,-8.301
1635969598.940,-120.605,96.191,92.773,-91.797,-5.371
1635969598.944,-102.539,87.402,92.773,-66.895,50.781
1635969598.948,-53.711,70.801,77.637,-56.152,43.457
1635969598.952,-3.418,50.781,61.523,-48.828,51.270
1635969598.956,-31.738,39.062,61.035,-27.832,80.078
1635969598.959,-46.875,30.762,61.523,-4.883,23.926
1635969598.963,-7.324,23.926,55.664,10.254,16.602
1635969598.967,62.012,21.973,35.156,12.695,59.082
1635969598.971,61.523,20.020,36.133,34.668,43.945
1635969598.975,20.508,14.160,51.270,56.152,10.742
1635969598.969,44.922,8.789,45.898,62.012,7.812
1635969598.973,110.840,0.977,27.344,61.035,0.977
1635969598.977,98.145,-3.418,24.902,62.012,18.066
1635969598.981,43.945,-4.395,30.762,80.566,37.109
1635969598.985,53.711,-12.207,23.926,90.332,25.391
1635969598.989,96.191,-19.531,12.207,87.891,40.527
1635969598.993,129.395,-14.648,4.883,92.773,24.902
1635969598.996,97.656,-13.184,13.184,116.211,64.453
1635969599.000,83.984,-20.508,10.254,127.441,38.574
1635969599.004,114.746,-22.949,-2.930,109.863,-4.395
1635969599.008,143.555,-20.020,-3.906,108.398,4.883
1635969599.012,110.352,-16.602,7.812,119.141,23.926
1635969599.044,78.125,-16.602,18.066,122.559,23.438
1635969599.048,94.727,-18.555,14.160,124.023,1.465
1635969599.052,147.949,-20.508,6.836,117.676,16.113
1635969599.056,128.906,-18.066,15.625,120.605,51.270
1635969599.060,85.449,-16.602,22.461,126.465,38.574
1635969599.064,95.215,-17.090,18.066,117.188,38.574
1635969599.068,140.137,-13.672,7.324,103.027,32.715
1635969599.071,145.996,-13.672,10.742,98.145,11.230
1635969599.075,93.750,-13.184,24.414,101.562,35.156
1635969599.079,85.449,-13.672,25.391,106.934,50.781
1635969599.083,111.816,-17.578,20.508,100.586,50.781
1635969599.087,134.766,-12.207,19.531,89.844,61.523
1635969599.082,97.168,-5.859,36.621,101.562,24.414
1635969599.086,68.848,-12.207,32.715,108.887,7.324
1635969599.090,91.309,-13.184,19.531,103.027,31.738
1635969599.094,136.719,-10.254,17.090,93.750,25.879
1635969599.098,104.004,-6.836,22.949,94.238,28.320
1635969599.102,69.824,-3.906,28.809,96.680,16.602
1635969599.106,86.426,-4.883,28.320,95.215,-35.645
1635969599.109,129.883,-4.883,20.508,84.473,29.785
1635969599.113,115.234,-2.441,20.508,83.008,66.895
1635969599.117,63.965,0.488,29.297,92.773,40.527
1635969599.121,57.617,-1.465,32.715,87.402,45.898
1635969599.125,100.098,-3.906,29.297,79.102,18.555
1635969599.139,109.863,1.465,23.926,75.195,19.043
1635969599.143,57.129,7.324,23.438,81.543,45.898
1635969599.147,43.945,7.812,22.949,81.543,59.082
1635969599.151,73.730,6.836,13.184,63.965,22.949
1635969599.155,113.281,7.812,10.742,63.965,30.273
1635969599.159,73.730,9.277,21.484,73.242,38.086
1635969599.163,30.762,9.766,14.648,67.383,-20.508
1635969599.166,61.035,9.766,9.277,60.547,9.766
1635969599.170,112.793,12.695,17.090,56.152,29.297
1635969599.174,79.590,14.160,25.391,54.199,57.129
1635969599.178,34.668,15.137,28.809,63.965,38.086
1635969599.182,39.062,17.578,21.484,68.848,18.555
1635969599.175,79.590,16.113,13.672,46.875,49.316
1635969599.179,69.824,14.160,19.043,45.898,25.391
1635969599.183,21.973,16.602,24.902,64.453,-26.855
1635969599.187,31.250,17.578,18.555,59.082,-58.105
1635969599.191,79.102,13.672,11.230,52.734,-29.297
1635969599.195,90.332,16.602,15.625,44.922,-8.789
1635969599.199,29.297,23.926,19.043,42.969,-13.672
1635969599.202,9.766,24.414,19.531,47.852,-30.273
1635969599.206,40.527,18.555,15.137,45.410,0.488
1635969599.210,75.195,21.973,15.625,41.016,63.965
1635969599.214,48.828,23.926,25.879,42.480,22.949
1635969599.218,20.020,25.879,25.391,48.828,-11.230
1635969599.212,36.621,30.273,22.461,45.898,66.895
1635969599.216,77.148,23.926,12.695,34.668,68.848
1635969599.220,47.852,20.020,18.066,40.039,29.785
1635969599.224,-0.977,22.949,34.180,50.781,53.223
1635969599.228,15.625,23.926,28.809,44.922,63.477
1635969599.232,70.312,19.531,9.277,32.227,27.344
1635969599.236,53.223,19.531,5.371,33.691,33.691
1635969599.239,3.418,21.973,18.555,34.180,11.230
1635969599.243,10.742,23.926,15.625,37.109,5.859
1635969599.247,50.293,21.973,12.207,41.992,30.273
1635969599.251,70.312,20.020,22.949,36.133,45.898
1635969599.255,23.438,23.926,28.809,36.621,-2.441
1635969599.269,3.906,29.297,32.715,35.156,-6.348
1635969599.273,29.785,24.414,26.855,28.809,66.406
1635969599.277,68.359,24.414,16.113,24.902,40.039
1635969599.281,31.250,27.832,18.555,22.949,34.668
1635969599.285,-9.277,22.461,21.484,29.785,21.973
1635969599.289,8.301,22.949,21.973,32.715,-32.715
1635969599.293,58.105,23.926,17.578,19.531,10.254
1635969599.296,45.410,27.344,23.926,19.531,49.805
1635969599.300,12.695,23.926,31.738,27.832,-4.883
1635969599.304,13.672,20.996,32.227,26.855,39.062
1635969599.308,51.758,27.344,23.438,26.367,46.387
1635969599.312,59.570,27.832,20.020,29.297,-13.672
1635969599.344,13.184,28.320,29.785,29.297,18.066
1635969599.348,3.906,30.762,21.973,27.344,-20.020
1635969599.352,41.016,31.250,10.742,28.320,-23.438
1635969599.356,69.336,29.785,8.789,26.855,-12.695
1635969599.360,29.297,30.273,20.020,29.785,-21.484
1635969599.364,8.301,31.738,27.344,34.180,11.230
1635969599.368,24.902,32.227,19.043,27.344,64.941
1635969599.371,58.594,32.715,15.625,10.742,59.570
1635969599.375,32.227,33.203,26.855,19.531,69.824
1635969599.379,0.977,28.809,24.902,28.809,40.527
1635969599.383,18.066,26.367,14.648,28.320,47.852
1635969599.387,59.570,23.438,4.883,20.508,75.195
1635969599.382,41.504,27.344,14.160,18.066,39.062
1635969599.386,0.977,31.738,26.855,30.273,21.973
1635969599.390,8.301,26.367,23.926,28.320,12.695
1635969599.394,43.945,19.531,12.207,25.391,50.293
1635969599.398,50.781,20.020,12.207,21.484,72.754
1635969599.402,13.672,24.414,18.555,24.902,86.426
1635969599.406,7.812,24.902,11.230,29.785,41.504
1635969599.409,34.180,27.832,14.648,25.879,45.410
1635969599.413,51.270,28.809,15.137,22.461,33.203
1635969599.417,7.324,28.320,20.508,30.762,-20.508
1635969599.421,-9.277,30.273,29.785,34.180,-8.789
1635969599.425,5.371,24.414,27.344,27.344,-28.809
1635969599.403,43.945,22.949,22.949,14.160,-6.836
1635969599.407,23.438,24.414,23.438,20.996,-21.484
1635969599.411,-6.348,23.438,29.785,33.691,-21.484
1635969599.415,2.930,22.949,35.645,26.367,17.578
1635969599.419,38.574,21.484,27.832,16.602,42.480
1635969599.423,43.945,21.973,25.391,25.879,48.340
1635969599.427,-6.836,21.973,30.273,33.203,11.719
1635969599.430,-7.812,22.949,33.203,30.762,0.977
1635969599.434,41.504,23.926,32.227,31.250,49.316
1635969599.438,59.082,23.926,25.391,25.879,46.387
1635969599.442,15.137,26.855,26.367,24.414,12.207
1635969599.446,-5.371,30.273,33.203,20.996,38.086
1635969599.475,29.297,30.762,36.621,21.484,46.387
1635969599.479,74.219,29.785,36.133,25.879,62.012
1635969599.483,32.715,26.367,38.574,30.273,61.523
1635969599.487,-7.812,21.484,34.668,26.367,45.410
1635969599.491,3.418,17.090,20.996,19.531,-4.883
1635969599.495,56.152,19.043,19.043,21.484,-4.395
1635969599.499,41.016,23.926,28.809,24.414,54.199
1635969599.502,-4.883,23.438,31.250,27.832,40.039
1635969599.506,17.578,23.926,30.762,32.715,15.137
1635969599.510,66.895,25.879,27.344,27.832,61.523
1635969599.514,54.688,30.273,29.297,32.715,98.633
1635969599.518,6.836,30.273,39.062,35.156,41.016
1635969599.512,10.254,30.273,36.621,30.762,-0.488
1635969599.516,55.176,32.715,28.809,33.691,1.953
1635969599.520,80.566,32.227,28.320,35.156,41.992
1635969599.524,35.156,30.762,34.180,35.156,44.922
1635969599.528,17.578,32.715,31.738,31.738,23.926
1635969599.532,35.156,32.227,20.020,30.762,33.203
1635969599.536,68.848,28.320,17.090,21.973,38.086
1635969599.539,43.945,30.273,27.832,19.531,37.598
1635969599.543,21.484,33.203,28.320,31.250,6.836
1635969599.547,31.738,34.668,22.461,37.109,-1.953
1635969599.551,62.988,31.250,20.996,26.367,48.340
1635969599.555,46.387,27.344,22.949,24.902,60.059
1635969599.553,3.418,27.832,23.438,27.832,15.625
1635969599.557,9.277,26.367,30.273,24.902,27.344
1635969599.561,50.781,26.855,23.438,20.508,60.059
1635969599.565,53.711,33.203,19.043,17.578,41.504
1635969599.569,5.859,34.180,29.785,24.414,4.395
1635969599.573,1.953,28.809,34.668,26.367,-14.648
1635969599.577,41.504,29.785,27.344,20.020,10.254
1635969599.580,72.266,29.297,24.414,16.113,50.293
1635969599.584,27.344,29.297,25.391,32.715,56.152
1635969599.588,-8.301,31.738,20.996,39.551,14.648
1635969599.592,13.184,29.297,19.043,29.785,19.531
1635969599.596,59.082,20.996,18.066,22.949,45.410
1635969599.589,35.156,21.973,23.926,32.227,37.598
1635969599.593,-2.441,26.367,17.090,32.715,27.832
1635969599.597,15.137,24.414,9.766,23.926,-5.371
1635969599.601,65.430,26.367,9.766,24.902,28.809
1635969599.605,44.922,27.832,11.230,26.855,29.297
1635969599.609,-13.672,25.391,15.625,21.973,27.832
1635969599.613,-8.789,24.902,23.926,17.090,56.641
1635969599.616,43.945,30.273,23.438,19.531,31.250
1635969599.620,52.246,35.156,25.391,20.996,7.812
1635969599.624,4.883,35.156,35.645,17.578,-19.043
1635969599.628,0.977,35.156,28.320,23.926,16.113
1635969599.632,41.504,35.645,7.324,26.855,71.289
1635969599.627,70.312,34.668,13.672,17.090,59.082
1635969599.631,21.484,34.180,31.250,21.484,63.477
1635969599.635,-0.977,32.715,33.691,36.621,52.734
1635969599.639,29.785,32.715,30.273,36.133,47.363
1635969599.643,64.453,35.645,17.578,21.973,36.133
1635969599.647,34.668,35.645,24.902,22.461,-3.418
1635969599.651,0.488,32.715,37.598,23.926,8.301
1635969599.654,14.160,28.809,25.879,26.855,46.875
1635969599.658,52.246,24.902,10.742,20.508,22.461
1635969599.662,52.734,26.855,17.578,13.672,-24.414
1635969599.666,20.508,31.738,25.879,26.367,7.324
1635969599.670,6.836,29.785,25.391,29.297,41.992
1635969599.701,33.203,27.344,24.414,20.020,84.961
1635969599.705,49.316,26.367,28.809,18.555,103.516
1635969599.709,12.207,24.902,41.504,30.273,67.383
1635969599.713,4.883,25.879,44.922,35.156,44.434
1635969599.717,25.391,27.344,32.227,28.809,36.133
1635969599.721,56.641,23.438,23.438,26.367,45.410
1635969599.725,30.273,20.508,15.625,27.344,23.438
1635969599.728,-0.977,23.926,15.137,20.508,-18.066
1635969599.732,15.137,24.902,20.996,20.508,8.789
1635969599.736,61.523,21.484,10.742,17.090,48.828
1635969599.740,39.062,19.531,13.672,20.508,27.344
1635969599.744,-1.465,17.090,22.461,25.879,8.789
1635969599.738,12.695,14.160,19.043,20.508,24.902
1635969599.742,55.664,15.137,3.906,12.695,41.992
1635969599.746,46.875,17.090,5.371,11.230,2.441
1635969599.750,-0.488,18.066,12.207,19.531,-8.789
1635969599.754,-0.977,19.043,17.090,20.996,17.090
1635969599.758,29.297,15.137,25.391,14.160,19.043
1635969599.762,40.527,17.090,28.320,9.766,-12.695
1635969599.765,2.441,18.066,38.574,15.625,-4.395
1635969599.769,-16.602,10.742,35.645,21.484,15.625
1635969599.773,10.254,12.207,30.762,19.531,22.949
1635969599.777,52.246,17.578,30.273,2.930,28.320
1635969599.781,19.043,22.461,36.621,1.465,35.645
1635969599.775,-11.230,20.020,50.781,13.672,21.973
1635969599.779,15.137,18.066,45.410,15.137,38.574
1635969599.783,58.594,21.484,33.203,6.348,33.691
1635969599.787,43.945,24.414,38.574,11.719,-8.301
1635969599.791,8.789,24.414,42.480,24.414,13.184
1635969599.795,4.395,24.414,34.668,25.879,20.996
1635969599.799,37.109,23.438,14.160,13.672,40.039
1635969599.802,47.363,21.973,10.742,2.930,31.738
1635969599.806,5.371,24.414,29.297,14.160,-2.441
1635969599.810,-0.977,19.531,31.738,23.438,42.969
1635969599.814,29.297,17.090,23.926,18.555,60.059
1635969599.818,48.828,17.578,18.555,13.184,62.012
1635969599.812,5.859,18.066,32.227,19.531,59.082
1635969599.816,-13.672,19.043,37.109,25.391,20.020
1635969599.820,13.672,20.508,24.414,19.531,16.113
1635969599.824,51.758,20.996,16.602,8.301,23.438
1635969599.828,9.277,20.020,22.949,9.766,50.293
1635969599.832,-19.531,24.414,33.691,17.090,49.316
1635969599.836,-1.465,22.949,31.250,15.625,1.465
1635969599.839,38.086,16.113,22.949,4.883,-8.301
1635969599.843,51.270,21.484,24.414,8.301,52.734
1635969599.847,12.207,29.297,30.273,16.602,85.449
1635969599.851,1.465,32.715,24.414,14.160,37.598
1635969599.855,40.039,32.227,17.090,6.836,46.387
1635969599.869,52.246,32.715,28.320,4.395,136.230
1635969599.873,-0.977,36.133,29.297,8.789,105.469
1635969599.877,-15.137,41.504,22.461,9.766,41.504
1635969599.881,17.578,43.457,23.438,2.930,8.301
1635969599.885,40.527,45.898,18.066,-4.395,-30.273
1635969599.889,5.371,51.270,24.414,0.000,17.090
1635969599.893,-17.578,49.805,26.367,-3.906,20.996
1635969599.896,4.395,57.617,20.508,-9.277,-7.812
1635969599.900,41.016,62.988,20.508,-12.207,12.695
1635969599.904,4.395,64.941,23.926,-12.695,35.156
1635969599.908,-25.879,73.242,25.879,-4.883,13.184
1635969599.912,-21.484,77.148,23.926,-4.395,27.344
1635969599.925,7.812,87.402,7.812,-15.137,68.359
1635969599.929,10.742,94.727,-2.441,-19.531,64.453
1635969599.933,-42.969,104.492,-1.465,-20.508,41.016
1635969599.937,-51.758,120.117,-3.906,-22.461,32.715
1635969599.941,-24.902,143.555,-16.113,-45.410,16.113
1635969599.945,-29.297,186.035,-19.043,-62.500,7.812
1635969599.949,-82.031,216.797,-10.254,-51.270,-4.395
1635969599.952,-96.191,229.004,-8.789,-57.129,4.395
1635969599.956,-87.891,240.234,-24.414,-86.426,26.367
1635969599.960,-68.848,242.188,-30.762,-102.051,-12.695
1635969599.964,-81.543,245.117,-12.207,-87.891,-17.090
1635969599.968,-97.656,242.188,-3.418,-74.219,-19.531
1635969599.963,-80.078,224.609,-6.348,-73.242,-25.391
1635969599.967,-38.574,209.473,-13.184,-87.891,20.996
1635969599.971,-74.219,206.543,-4.395,-100.098,-2.441
1635969599.975,-118.164,195.801,11.719,-91.797,9.277
1635969599.979,-93.750,183.594,10.254,-71.289,9.766
1635969599.983,-38.574,175.293,-8.789,-62.012,4.395
1635969599.987,-28.320,164.062,-9.277,-61.035,2.930
1635969599.990,-70.801,156.738,6.836,-52.734,-35.645
1635969599.994,-70.801,154.785,9.766,-45.898,12.207
1635969599.998,-45.898,142.090,2.930,-55.664,41.504
1635969600.002,-17.090,128.418,4.883,-53.711,22.949
1635969600.006,-39.551,128.906,16.602,-40.039,46.875
1635969600.000,-44.922,131.836,25.391,-31.738,24.902
1635969600.004,-19.043,125.977,19.043,-28.809,8.301
1635969600.008,14.160,118.652,15.137,-31.250,34.180
1635969600.012,-16.113,117.676,19.531,-24.902,60.059
1635969600.016,-52.246,108.887,12.695,-21.484,32.227
1635969600.020,-33.203,103.516,14.648,-19.531,-8.301
1635969600.024,16.602,104.004,13.184,-23.438,7.324
1635969600.027,-0.977,99.121,18.066,-20.020,-9.766
1635969600.031,-43.457,95.703,22.949,-15.137,-5.859
1635969600.035,-48.340,91.309,18.555,-25.879,24.414
1635969600.039,-9.277,85.449,15.625,-28.320,46.875
1635969600.043,9.766,84.961,15.625,-19.043,49.316
1635969600.056,-34.668,83.984,19.043,-10.254,43.457
1635969600.060,-32.715,78.613,-11.719,-1.953,-5.371
1635969600.064,15.137,68.848,-38.574,6.836,-1.953
1635969600.068,41.016,69.824,-31.250,8.301,64.941
1635969600.072,6.348,75.684,-26.367,14.160,31.250
1635969600.076,-2.930,70.801,-21.484,25.391,24.414
1635969600.080,15.137,65.430,-26.367,22.461,30.762
1635969600.083,50.293,63.965,-37.109,14.648,11.719
1635969600.087,33.203,67.383,-26.855,24.414,35.645
1635969600.091,6.836,72.266,-26.367,34.668,0.977
1635969600.095,20.020,68.359,-32.715,31.738,-24.414
1635969600.099,53.223,62.988,-33.691,22.949,49.805
1635969600.096,50.293,63.965,-21.973,33.691,51.270
1635969600.100,13.672,59.570,-9.766,46.875,14.648
1635969600.104,7.812,63.965,-20.996,34.668,28.320
1635969600.108,47.363,62.500,-32.227,28.320,31.738
1635969600.112,43.945,61.035,-20.020,23.438,32.715
1635969600.116,-3.906,70.312,-7.324,28.320,57.129
1635969600.120,-2.441,71.289,-8.789,33.691,29.785
1635969600.123,25.391,59.082,-18.555,25.879,-1.465
1635969600.127,59.570,62.988,-29.297,25.391,26.855
1635969600.131,20.508,66.406,-24.902,26.855,16.113
1635969600.135,1.465,64.941,-17.578,31.738,18.066
1635969600.139,28.320,66.406,-22.461,37.109,28.320
1635969600.151,60.547,62.988,-24.902,28.320,46.387
1635969600.155,32.227,56.152,-21.973,22.949,13.672
1635969600.159,-4.395,55.176,-20.996,29.785,22.461
1635969600.163,11.719,63.965,-23.438,30.273,44.434
1635969600.167,56.152,69.336,-31.738,28.809,-4.883
1635969600.171,51.270,66.406,-15.137,37.109,10.254
1635969600.175,2.441,63.477,0.977,39.062,-13.672
1635969600.178,1.465,61.035,2.930,32.227,10.742
1635969600.182,41.504,59.082,0.000,23.926,62.012
1635969600.186,65.918,55.664,-5.859,21.973,62.988
1635969600.190,40.039,60.059,1.953,40.039,89.844
1635969600.194,24.902,62.500,-0.488,48.828,22.949
1635969600.188,46.875,61.035,-3.906,39.551,19.043
1635969600.192,87.891,55.176,-3.906,35.156,75.195
1635969600.196,56.152,49.805,1.953,35.645,21.973
1635969600.200,31.738,45.410,16.113,43.457,20.020
1635969600.204,32.715,42.480,15.625,40.527,27.832
1635969600.208,66.406,49.316,13.184,31.250,63.965
1635969600.212,52.246,48.828,22.461,26.367,65.918
1635969600.215,0.977,47.852,26.367,22.949,5.859
1635969600.219,11.230,51.270,23.926,30.273,35.645
1635969600.223,53.223,45.898,17.090,24.414,22.949
1635969600.227,57.129,44.922,20.996,14.160,14.648
1635969600.231,7.324,44.922,25.391,25.391,73.242
1635969600.244,-2.930,36.621,22.461,26.855,51.270
1635969600.248,33.203,31.250,13.184,18.555,37.109
1635969600.252,61.523,26.367,11.230,20.020,34.180
1635969600.256,31.250,25.879,20.996,33.691,17.090
1635969600.260,12.207,28.320,21.973,39.551,35.156
1635969600.264,43.457,23.438,17.578,43.457,64.941
1635969600.268,79.590,18.066,2.930,37.598,67.383
1635969600.271,47.852,23.926,7.812,33.203,44.434
1635969600.275,21.484,22.461,17.090,44.922,-9.766
1635969600.279,34.668,13.672,18.555,49.316,23.926
1635969600.283,76.172,13.184,9.277,40.527,69.336
1635969600.287,72.266,18.555,10.742,47.363,28.320
1635969600.281,26.367,24.902,22.461,47.852,-23.926
1635969600.285,14.160,27.344,16.602,36.621,-28.809
1635969600.289,57.617,24.414,9.277,41.016,2.930
1635969600.293,70.801,29.297,10.254,41.504,22.949
1635969600.297,24.414,33.691,12.695,39.551,37.598
1635969600.301,11.230,23.926,19.043,41.504,34.180
1635969600.305,44.434,20.020,17.090,36.621,25.879
1635969600.308,70.312,27.344,18.066,27.344,0.488
1635969600.312,28.809,30.762,34.668,34.180,8.789
1635969600.316,15.137,28.320,34.180,37.109,41.504
1635969600.320,40.527,27.344,36.133,32.715,-13.184
1635969600.324,71.289,26.367,32.715,27.832,9.766
1635969600.338,51.758,29.785,33.691,30.273,65.918
1635969600.342,20.020,33.203,38.574,39.551,118.652
1635969600.346,20.020,33.203,33.691,33.691,69.336
1635969600.350,59.082,30.273,28.320,27.344,32.715
1635969600.354,50.781,26.367,26.855,22.949,59.570
1635969600.358,17.578,22.949,36.133,31.250,28.320
1635969600.362,14.160,25.391,32.715,34.180,-26.367
1635969600.365,44.434,28.809,26.367,27.344,-65.918
1635969600.369,64.453,19.043,36.133,28.320,30.762
1635969600.373,16.602,18.555,45.410,34.180,67.383
1635969600.377,0.488,25.879,53.711,35.645,26.855
1635969600.381,20.508,18.066,44.434,30.273,94.238
1635969600.376,58.594,17.578,31.738,26.855,101.562
1635969600.380,34.668,20.508,35.156,33.691,28.320
1635969600.384,2.930,21.484,37.109,37.598,9.277
1635969600.388,14.648,20.508,26.367,29.297,44.434
1635969600.392,59.082,11.230,15.625,27.344,21.973
1635969600.396,48.340,13.184,21.973,34.180,12.207
1635969600.400,11.719,21.484,27.832,36.133,32.227
1635969600.403,15.137,22.461,25.391,31.738,18.066
1635969600.407,45.898,13.672,24.902,22.461,-13.184
1635969600.411,39.551,19.043,34.668,22.461,-11.719
1635969600.415,1.465,26.855,52.246,28.320,20.508
1635969600.419,-4.883,23.438,46.875,30.762,73.242
1635969600.432,30.273,23.926,27.344,25.879,29.297
1635969600.436,48.828,22.461,23.926,22.461,17.578
1635969600.440,16.113,19.531,34.668,32.227,26.367
1635969600.444,9.766,16.602,44.434,39.551,-10.254
1635969600.448,27.832,9.766,30.762,35.156,-2.930
1635969600.452,65.430,15.137,20.020,27.832,48.340
1635969600.456,32.227,14.648,31.250,31.738,72.754
1635969600.459,-2.441,12.695,35.156,39.062,64.453
1635969600.463,19.531,18.555,32.227,44.434,10.254
1635969600.467,63.965,20.508,21.973,36.133,32.715
1635969600.471,51.270,19.531,26.855,27.344,62.012
1635969600.475,15.625,18.555,32.715,29.297,-6.348
1635969600.488,17.090,25.879,31.738,30.273,-0.977
1635969600.492,59.082,28.320,29.297,29.297,32.227
1635969600.496,66.895,29.297,33.203,27.344,18.066
1635969600.500,17.090,37.109,41.992,34.668,21.484
1635969600.504,2.441,35.645,39.551,35.645,53.711
1635969600.508,40.039,28.809,31.738,26.855,53.223
1635969600.512,68.848,25.879,24.902,22.949,-15.137
1635969600.515,20.508,27.832,37.109,28.320,-1.465
1635969600.519,4.395,27.832,53.711,30.762,38.086
1635969600.523,36.133,22.949,47.363,35.156,7.324
1635969600.527,74.219,19.531,48.340,33.691,27.344
1635969600.531,52.734,23.438,59.570,24.414,42.480
1635969600.525,21.484,27.344,56.641,24.414,53.711
1635969600.529,29.297,26.367,58.105,36.621,15.625
1635969600.533,73.730,22.461,63.965,31.738,-3.418
1635969600.537,64.941,20.996,82.520,31.738,42.969
1635969600.541,19.531,23.438,85.938,39.062,23.926
1635969600.545,25.879,23.926,75.684,37.598,34.668
1635969600.549,62.500,23.926,68.848,35.645,54.199
1635969600.552,59.570,18.555,65.918,32.227,49.316
1635969600.556,23.438,16.602,67.383,38.574,31.738
1635969600.560,24.414,14.160,56.641,43.945,27.344
1635969600.564,52.246,8.789,46.875,40.039,26.367
1635969600.568,69.336,7.812,41.992,31.738,45.410
1635969600.562,32.715,16.113,47.363,35.156,15.137
1635969600.566,3.906,15.625,58.594,42.480,-32.715
1635969600.570,22.949,11.230,68.848,46.875,48.828
1635969600.574,70.312,13.672,64.453,38.574,88.867
1635969600.578,30.273,16.113,65.918,27.344,28.809
1635969600.582,0.000,24.414,73.730,24.902,-16.113
1635969600.586,25.879,29.297,73.242,33.691,8.789
1635969600.589,66.406,24.414,71.777,29.785,60.059
1635969600.593,43.457,22.949,69.824,19.043,41.504
1635969600.597,-13.672,29.785,73.242,14.160,0.000
1635969600.601,-12.695,34.668,73.730,7.324,-13.184
1635969600.605,28.320,35.645,62.988,6.836,35.156
1635969600.620,41.992,35.645,59.570,9.277,69.336
1635969600.624,-8.789,35.156,63.477,11.230,49.805
1635969600.628,-14.648,37.598,54.199,9.766,41.992
1635969600.632,25.879,35.156,45.898,10.254,50.781
1635969600.636,55.664,34.668,38.574,5.859,35.645
1635969600.640,23.926,36.133,36.621,10.254,30.273
1635969600.644,-10.254,28.320,41.992,19.531,46.387
1635969600.647,-6.836,28.320,40.527,12.207,1.465
1635969600.651,51.758,32.715,38.574,8.789,13.672
1635969600.655,44.434,33.203,37.109,16.602,36.133
1635969600.659,-7.324,29.297,32.227,15.137,4.395
1635969600.663,6.348,25.391,28.320,24.902,8.789
1635969600.656,53.223,26.855,22.461,26.367,4.883
1635969600.660,57.129,29.785,22.461,27.832,7.324
1635969600.664,24.414,31.738,34.668,42.969,23.438
1635969600.668,26.855,35.645,35.645,47.852,22.949
1635969600.672,64.941,32.715,21.973,40.527,44.434
1635969600.676,76.660,30.762,15.625,30.762,35.645
1635969600.680,29.785,36.621,26.367,41.504,10.742
1635969600.683,9.277,36.133,34.668,41.504,41.504
1635969600.687,32.227,32.715,25.879,31.738,80.078
1635969600.691,74.219,27.832,13.672,27.832,76.172
1635969600.695,40.039,26.367,25.391,29.297,45.898
1635969600.699,12.207,25.879,38.086,38.574,15.137
1635969600.712,30.273,22.461,34.180,38.086,45.898
1635969600.716,60.059,20.020,21.973,24.414,42.480
1635969600.720,39.551,19.043,25.879,24.902,12.207
1635969600.724,-4.395,16.602,35.645,22.949,7.324
1635969600.728,-8.301,14.160,31.738,18.066,-36.133
1635969600.732,28.320,13.184,23.926,10.254,-0.977
1635969600.736,37.109,11.230,20.508,1.465,42.969
1635969600.739,-6.348,16.113,34.668,12.207,20.508
1635969600.743,-5.371,11.230,37.598,19.043,-17.578
1635969600.747,35.156,2.930,24.902,9.277,22.949
1635969600.751,60.059,2.930,19.531,16.113,21.484
1635969600.755,21.973,3.418,28.320,31.250,7.324
1635969600.750,9.766,3.906,30.762,23.438,18.555
1635969600.754,31.738,2.441,23.438,19.043,7.812
1635969600.758,60.059,1.953,24.414,19.043,29.297
1635969600.762,42.480,2.441,30.273,17.090,20.508
1635969600.766,6.836,4.395,34.180,12.695,78.125
1635969600.770,14.648,1.953,30.762,14.648,80.566
1635969600.774,58.594,0.000,23.438,17.578,3.418
1635969600.777,48.828,7.812,37.598,17.090,18.555
1635969600.781,0.000,11.719,40.039,21.973,10.742
1635969600.785,5.859,8.301,32.227,19.043,-47.363
1635969600.789,41.504,6.348,36.621,7.324,10.254
1635969600.793,38.086,6.836,40.039,11.719,39.062
1635969600.825,-5.371,8.789,47.852,16.602,16.602
1635969600.829,-16.113,8.789,43.457,11.230,41.016
1635969600.833,13.184,5.371,38.086,17.090,28.809
1635969600.837,45.410,3.906,44.922,14.160,24.414
1635969600.841,17.578,8.301,47.363,17.090,29.297
1635969600.845,-13.672,9.277,43.945,21.484,10.742
1635969600.849,4.395,7.812,33.691,18.555,34.668
1635969600.852,51.758,9.277,30.762,13.184,58.594
1635969600.856,33.203,13.184,41.016,16.602,19.531
1635969600.860,4.883,20.508,40.527,28.809,18.066
1635969600.864,8.789,16.113,37.109,31.250,42.480
1635969600.868,54.688,9.766,22.949,21.973,-6.836
1635969600.847,49.316,16.113,23.438,16.113,20.996
1635969600.851,6.348,18.555,29.297,27.832,52.246
1635969600.855,17.578,20.996,32.715,29.785,54.199
1635969600.859,42.480,18.555,25.391,24.414,43.457
1635969600.863,53.223,18.066,24.414,26.855,20.996
1635969600.867,17.090,22.461,32.715,31.738,38.574
1635969600.871,14.160,24.902,30.273,31.250,36.621
1635969600.874,35.156,23.438,26.367,16.602,16.113
1635969600.878,41.504,22.461,14.648,7.324,19.043
1635969600.882,19.043,28.809,26.367,28.809,29.297
1635969600.886,7.324,23.438,41.992,29.785,28.809
1635969600.890,16.113,20.020,29.785,18.555,-11.230
1635969600.900,51.270,24.414,24.414,14.160,-33.691
1635969600.904,27.344,27.344,34.180,14.648,0.488
1635969600.908,-4.883,30.273,38.574,18.555,11.230
1635969600.912,2.441,30.273,33.203,17.090,31.250
1635969600.916,23.926,31.250,16.113,14.160,68.848
1635969600.920,22.949,35.645,20.508,11.230,58.105
1635969600.924,-15.137,36.621,37.598,12.695,23.438
1635969600.927,-12.207,37.598,36.621,13.184,23.926
1635969600.931,39.551,38.574,31.738,13.672,40.039
1635969600.935,61.035,37.598,37.109,13.672,31.250
1635969600.939,6.836,39.551,47.363,21.973,48.340
1635969600.943,-7.324,37.598,46.387,36.133,47.363
1635969600.938,14.648,33.691,39.551,24.902,48.340
1635969600.942,52.246,31.250,36.133,8.789,46.875
1635969600.946,25.391,33.203,36.621,14.160,33.691
1635969600.950,-2.930,30.762,40.039,29.297,27.832
1635969600.954,2.930,29.297,33.691,33.203,-4.395
1635969600.958,38.086,28.320,26.367,13.672,23.438
1635969600.962,16.602,32.715,31.250,1.465,37.109
1635969600.965,-20.996,40.527,41.016,7.812,5.371
1635969600.969,-10.254,37.598,32.715,13.184,41.016
1635969600.973,26.367,30.273,14.648,8.789,40.039
1635969600.977,35.645,29.785,34.180,3.906,20.020
1635969600.981,-12.695,34.668,46.875,13.184,13.184
1635969600.994,-11.230,38.574,50.293,21.973,33.691
1635969600.998,28.809,31.738,47.363,15.137,46.875
1635969601.002,53.711,28.809,38.574,3.906,22.949
1635969601.006,6.348,32.715,51.758,11.230,-19.531
1635969601.010,-17.090,32.227,54.199,19.531,-11.719
1635969601.014,10.742,31.250,45.410,16.113,40.527
1635969601.018,45.898,26.367,34.180,10.742,41.016
1635969601.021,29.785,29.785,37.109,19.043,10.254
1635969601.025,8.789,32.715,50.781,28.809,37.109
1635969601.029,25.879,31.250,41.992,20.996,34.180
1635969601.033,73.730,29.785,29.785,17.578,27.344
1635969601.037,52.246,18.555,39.062,22.949,42.969
1635969601.033,3.906,18.555,51.270,37.598,20.508
1635969601.037,8.301,23.438,50.781,33.691,-8.301
1635969601.041,46.387,17.090,40.527,17.090,0.488
1635969601.045,51.270,14.160,34.180,20.996,-0.488
1635969601.049,11.230,20.508,41.504,36.133,-6.836
1635969601.053,11.230,29.785,46.387,42.480,22.949
1635969601.057,38.086,29.785,38.574,33.203,30.762
1635969601.060,71.289,29.785,40.039,19.043,68.848
1635969601.064,37.109,33.203,51.270,23.926,68.848
1635969601.068,6.348,29.785,52.734,26.855,26.367
1635969601.072,32.715,21.484,47.363,26.367,31.250
1635969601.076,67.383,22.461,35.156,26.367,38.574
1635969601.106,41.016,25.879,36.133,22.461,-8.789
1635969601.110,11.719,25.391,43.457,30.762,14.648
1635969601.114,15.137,17.578,44.434,33.691,99.609
1635969601.118,52.734,14.160,40.527,24.414,69.824
1635969601.122,56.152,17.090,46.875,27.832,68.848
1635969601.126,7.324,20.020,50.781,45.410,73.242
1635969601.130,7.812,21.484,38.574,42.480,-8.301
1635969601.133,41.016,9.277,42.480,20.996,-47.363
1635969601.137,51.758,4.883,56.152,20.996,-15.625
1635969601.141,18.555,9.766,58.594,29.785,59.570
1635969601.145,3.906,12.207,51.758,35.156,66.406
1635969601.149,14.648,13.672,32.715,36.133,-13.672
1635969601.125,53.223,14.648,21.973,30.762,-30.762
1635969601.129,29.297,17.090,40.527,31.250,38.574
1635969601.133,0.977,15.137,54.688,37.598,91.309
1635969601.137,22.949,16.113,42.969,35.156,77.637
1635969601.141,71.289,18.555,33.203,21.484,38.574
1635969601.145,45.410,18.555,43.457,25.391,-6.836
1635969601.149,-9.766,22.949,43.945,27.832,-9.766
1635969601.152,4.883,22.461,42.480,26.367,48.828
1635969601.156,49.805,19.043,33.691,21.484,53.223
1635969601.160,41.016,21.484,37.109,23.926,14.648
1635969601.164,0.977,22.949,48.340,31.738,-18.555
1635969601.168,0.000,15.625,48.340,29.297,4.883
1635969601.181,38.086,15.625,45.410,30.762,54.688
1635969601.185,62.012,24.902,36.133,29.297,52.246
1635969601.189,18.555,21.973,40.039,29.297,30.273
1635969601.193,4.395,20.020,44.434,34.180,20.996
1635969601.197,24.414,25.391,41.504,28.809,-7.812
1635969601.201,61.035,26.367,33.691,27.832,41.504
1635969601.205,35.156,27.832,27.344,35.645,86.426
1635969601.208,11.230,25.391,36.133,35.645,54.688
1635969601.212,36.621,24.902,39.551,32.227,0.977
1635969601.216,59.082,20.996,33.203,22.949,-17.090
1635969601.220,39.551,23.926,42.969,30.762,9.766
1635969601.224,-6.348,26.855,43.945,35.156,22.949
1635969601.219,-1.465,23.926,38.086,27.344,0.000
1635969601.223,52.734,28.809,30.762,26.367,-0.977
1635969601.227,60.547,30.273,39.551,26.367,26.855
1635969601.231,23.438,28.320,55.664,31.738,36.621
1635969601.235,18.555,23.926,47.852,32.227,8.789
1635969601.239,46.387,24.902,36.133,34.668,15.625
1635969601.243,65.918,29.785,33.691,33.691,88.867
1635969601.246,30.273,28.320,43.457,29.785,88.867
1635969601.250,18.066,28.320,53.711,36.133,54.688
1635969601.254,35.645,33.203,54.199,40.039,48.340
1635969601.258,70.801,36.133,49.316,33.203,56.641
1635969601.262,31.250,29.297,60.547,33.691,24.414
1635969601.275,-3.418,32.227,69.336,37.598,29.297
1635969601.279,10.254,37.598,60.547,30.273,30.762
1635969601.283,46.875,35.645,53.711,4.883,7.812
1635969601.287,38.086,36.133,60.059,-0.977,35.645
1635969601.291,-7.812,43.457,61.035,15.625,38.086
1635969601.295,-5.371,50.293,61.523,12.695,46.387
1635969601.299,23.438,49.805,54.199,-3.906,53.711
1635969601.302,28.320,50.781,52.734,-3.418,2.441
1635969601.306,-2.930,48.340,63.477,-8.301,5.371
1635969601.310,-13.184,45.898,62.500,-8.301,20.996
1635969601.314,1.953,46.875,57.617,-2.441,33.203
1635969601.318,38.086,42.969,52.734,7.812,36.133
1635969601.332,11.719,42.480,63.965,12.207,37.109
1635969601.336,-6.348,41.016,80.566,7.812,37.598
1635969601.340,23.438,33.691,83.496,22.949,31.738
1635969601.344,62.988,32.715,77.637,29.785,13.672
1635969601.348,38.086,29.297,83.984,26.367,-22.461
1635969601.352,2.930,26.855,98.145,28.320,-22.461
1635969601.356,1.465,25.391,108.887,18.555,-6.348
1635969601.359,43.457,17.578,113.770,14.648,-3.906
1635969601.363,41.992,12.207,116.211,20.020,12.207
1635969601.367,-2.441,11.719,113.770,25.391,38.086
1635969601.371,10.254,12.695,119.141,31.738,-3.906
1635969601.375,57.617,16.113,112.793,31.738,-17.090
1635969601.369,77.637,16.113,114.746,34.180,62.988
1635969601.373,34.668,16.602,131.348,40.527,93.262
1635969601.377,18.555,16.602,129.883,44.922,20.996
1635969601.381,48.828,16.113,123.535,44.434,26.855
1635969601.385,77.148,17.578,117.188,44.434,74.707
1635969601.389,46.875,17.090,127.930,49.805,22.949
1635969601.393,29.785,16.602,130.371,57.129,9.277
1635969601.396,48.828,14.160,128.906,60.547,29.785
1635969601.400,83.008,14.648,128.906,51.758,29.785
1635969601.404,60.547,17.090,140.137,54.199,68.359
1635969601.408,26.367,19.043,144.043,66.406,51.758
1635969601.412,32.715,20.508,131.836,54.688,18.555
1635969601.425,68.359,23.926,119.629,39.062,58.105
1635969601.429,65.918,28.809,120.117,53.223,42.969
1635969601.433,21.484,32.227,135.742,63.477,-13.672
1635969601.437,26.367,30.762,130.859,63.477,30.762
1635969601.441,51.270,20.020,113.770,54.199,66.406
1635969601.445,63.477,20.020,127.441,44.922,47.363
1635969601.449,29.297,25.391,149.414,52.246,39.551
1635969601.452,16.602,25.879,148.438,49.316,40.527
1635969601.456,37.109,26.367,135.742,46.387,69.336
1635969601.460,78.125,25.391,126.465,38.086,109.375
1635969601.464,51.270,28.320,137.695,44.922,91.309
1635969601.468,19.043,29.297,140.625,50.781,69.824
1635969601.462,35.645,20.020,133.789,44.922,44.922
1635969601.466,75.684,23.438,131.836,42.480,43.457
1635969601.470,57.129,35.156,130.859,31.250,63.477
1635969601.474,13.184,34.668,137.695,33.691,72.754
1635969601.478,16.113,30.273,133.301,38.086,62.988
1635969601.482,53.711,33.203,126.953,25.879,40.527
1635969601.486,63.965,40.527,140.137,13.672,18.555
1635969601.489,20.020,43.457,163.574,20.996,-20.996
1635969601.493,14.160,37.598,165.527,32.715,0.000
1635969601.497,43.945,31.250,153.320,26.855,28.320
1635969601.501,75.195,36.133,152.344,16.113,48.828
1635969601.505,43.457,41.504,153.320,33.691,19.531
1635969601.519,19.531,43.945,152.832,40.039,13.184
1635969601.523,38.574,43.945,155.273,38.574,29.785
1635969601.527,76.172,41.016,140.625,39.551,36.133
1635969601.531,53.223,38.086,131.348,42.480,29.785
1635969601.535,13.672,35.645,140.137,46.387,10.254
1635969601.539,21.484,30.273,134.766,38.086,33.203
1635969601.543,57.617,24.902,119.629,28.809,23.926
1635969601.546,48.828,28.320,123.535,20.508,-26.855
1635969601.550,-1.465,28.809,132.324,20.508,-24.414
1635969601.554,-7.812,26.855,130.371,17.090,-36.621
1635969601.558,40.527,25.391,125.488,14.160,13.184
1635969601.562,49.316,23.926,121.094,16.602,35.156
1635969601.557,0.000,24.414,137.207,24.902,15.137
1635969601.561,-4.883,23.438,151.367,33.203,30.273
1635969601.565,29.297,21.973,140.137,30.273,41.504
1635969601.569,64.453,31.250,147.461,27.832,55.664
1635969601.573,31.250,36.621,165.527,37.109,44.434
1635969601.577,10.742,28.809,162.598,50.293,17.090
1635969601.581,30.762,25.879,148.438,41.504,27.832
1635969601.584,58.594,24.414,142.090,23.438,86.914
1635969601.588,41.992,23.438,147.461,30.762,41.992
1635969601.592,6.348,20.020,149.414,42.480,4.395
1635969601.596,11.230,20.508,134.277,37.109,0.977
1635969601.600,60.059,21.973,119.629,25.879,16.113
1635969601.594,63.477,21.484,135.742,29.297,39.551
1635969601.598,25.391,20.996,151.367,40.039,0.977
1635969601.602,31.250,16.113,140.625,44.434,-23.438
1635969601.606,72.266,19.043,128.906,44.922,-9.766
1635969601.610,89.355,21.484,120.605,46.387,26.367
1635969601.614,42.969,16.602,115.234,48.340,29.785
1635969601.618,14.648,13.184,113.281,37.598,51.270
1635969601.621,32.227,15.625,102.051,26.855,121.094
1635969601.625,73.242,23.438,87.402,25.391,123.535
1635969601.629,46.875,21.973,98.633,30.273,2.441
1635969601.633,16.602,17.578,105.957,35.645,-10.742
1635969601.637,29.785,20.508,104.004,36.621,-16.113
1635969601.650,62.012,19.531,99.121,30.273,-25.391
1635969601.654,44.434,15.625,104.980,27.832,41.016
1635969601.658,-0.977,17.090,114.746,27.832,54.688
1635969601.662,7.812,21.973,105.469,27.832,5.371
1635969601.666,58.105,18.555,87.891,24.414,32.715
1635969601.670,57.617,17.578,86.914,20.020,44.434
1635969601.674,13.672,20.508,97.656,27.344,43.457
1635969601.677,8.789,17.578,89.355,39.062,57.617
1635969601.681,49.805,22.461,74.707,39.062,51.270
1635969601.685,69.336,23.926,83.984,24.902,23.438
1635969601.689,25.879,16.113,100.098,30.273,11.719
1635969601.693,8.789,15.137,95.703,35.156,10.254
1635969601.688,25.879,18.066,83.496,24.414,-14.160
1635969601.692,67.383,12.695,70.801,14.160,-10.742
1635969601.696,38.574,12.695,77.148,16.113,51.758
1635969601.700,8.301,16.602,87.402,30.762,94.727
1635969601.704,35.156,13.184,87.402,37.109,29.785
1635969601.708,73.730,18.066,73.730,25.391,66.406
1635969601.712,56.641,21.484,68.359,21.973,74.707
1635969601.715,15.625,20.996,93.750,34.668,24.902
1635969601.719,13.184,17.578,91.309,28.320,35.645
1635969601.723,45.898,12.207,75.195,17.090,14.160
1635969601.727,62.500,20.996,83.496,20.996,7.812
1635969601.731,16.602,29.297,87.402,32.715,-19.043
1635969601.744,10.254,32.227,88.379,40.527,-16.602
1635969601.748,41.504,31.250,71.289,30.762,-19.531
1635969601.752,54.688,32.715,62.988,17.090,29.297
1635969601.756,15.137,30.273,92.773,31.250,70.312
1635969601.760,-6.836,25.391,87.402,36.133,-6.836
1635969601.764,14.648,22.461,64.453,28.809,39.551
1635969601.768,51.758,27.344,60.059,20.020,39.551
1635969601.771,27.344,34.180,73.730,17.578,5.371
1635969601.775,-15.137,30.762,82.520,21.973,35.156
1635969601.779,-1.465,30.273,71.777,23.438,14.648
1635969601.783,43.945,33.691,57.129,19.043,30.762
1635969601.787,34.668,39.551,52.734,14.160,27.344
1635969601.783,-9.766,37.598,62.012,16.602,-10.254
1635969601.787,-11.230,29.297,53.711,14.648,-18.066
1635969601.791,39.551,28.809,40.039,12.695,62.988
1635969601.795,54.199,32.715,48.340,19.531,51.758
1635969601.799,7.812,39.062,52.734,25.879,-14.160
1635969601.803,-1.953,39.062,53.711,18.066,29.297
1635969601.807,19.043,37.109,46.387,11.719,2.441
1635969601.810,54.199,33.691,40.039,13.184,-43.457
1635969601.814,19.531,31.250,44.434,16.113,31.250
1635969601.818,-14.648,30.273,57.617,16.113,71.777
1635969601.822,5.371,27.832,68.359,19.531,80.078
1635969601.826,52.734,23.926,58.594,16.602,64.941
1635969601.837,34.668,26.367,66.895,18.555,46.387
1635969601.841,-8.789,35.156,72.754,22.461,46.387
1635969601.845,-0.977,32.227,69.336,18.555,54.688
1635969601.849,49.805,26.855,65.918,6.836,56.152
1635969601.853,47.363,27.832,76.660,7.812,15.137
1635969601.857,1.465,26.855,87.891,20.996,42.969
1635969601.861,0.977,20.508,77.637,18.066,68.848
1635969601.864,38.574,19.531,65.430,10.742,45.898
1635969601.868,53.223,19.043,68.359,17.578,58.105
1635969601.872,10.742,20.996,79.590,22.461,27.344
1635969601.876,5.859,20.508,85.449,34.180,2.441
1635969601.880,32.715,14.648,79.590,30.273,46.387
1635969601.875,70.801,10.742,70.312,18.555,63.477
1635969601.879,33.203,12.695,79.102,33.203,3.906
1635969601.883,0.977,17.090,84.961,34.180,13.184
1635969601.887,27.344,17.578,72.754,33.203,-9.766
1635969601.891,68.359,21.484,66.895,27.832,10.254
1635969601.895,42.480,25.879,78.125,29.297,14.648
1635969601.899,9.277,22.461,83.008,36.621,7.324
1635969601.902,20.996,19.531,71.777,35.156,22.461
1635969601.906,49.316,19.531,63.477,35.156,31.250
1635969601.910,49.316,21.484,62.988,29.297,10.742
1635969601.914,2.441,24.414,63.965,31.250,14.648
1635969601.918,-1.953,20.508,54.199,33.203,69.336
1635969601.932,41.504,20.996,53.711,27.344,72.754
1635969601.936,59.082,23.438,51.270,23.926,24.902
1635969601.940,10.254,22.461,58.594,31.250,-19.531
1635969601.944,-6.348,20.508,60.547,45.410,-20.020
1635969601.948,15.137,18.066,41.016,30.762,1.953
1635969601.952,63.965,19.531,26.367,16.602,-0.977
1635969601.956,50.293,20.508,26.367,32.227,0.000
1635969601.959,17.578,21.973,39.062,38.574,-5.859
1635969601.963,31.250,26.855,38.574,35.156,11.719
1635969601.967,67.871,23.438,28.320,21.973,32.227
1635969601.971,50.781,16.602,42.969,21.973,33.203
1635969601.975,3.418,17.090,44.434,37.109,28.320
1635969601.969,11.230,24.414,37.109,40.039,61.035
1635969601.973,60.547,23.926,37.109,41.016,77.148
1635969601.977,71.777,21.484,32.715,35.156,40.527
1635969601.981,28.320,22.949,34.180,28.809,6.836
1635969601.985,16.113,19.043,28.320,31.250,-4.883
1635969601.989,43.945,16.113,17.090,30.762,41.504
1635969601.993,73.242,21.973,20.020,31.738,49.805
1635969601.996,38.574,26.367,35.156,41.992,35.156
1635969602.000,13.184,20.508,29.785,43.945,46.387
1635969602.004,38.574,12.207,21.484,39.062,27.344
1635969602.008,75.195,10.254,29.785,33.691,36.133
1635969602.012,41.504,13.672,39.062,38.574,0.000
1635969602.025,7.324,17.090,49.805,51.270,-5.859
1635969602.029,17.090,9.277,32.227,45.410,46.387
1635969602.033,59.082,1.953,8.789,27.832,41.504
1635969602.037,58.105,0.488,23.438,27.344,53.711
1635969602.041,21.484,-2.441,32.227,41.504,55.664
1635969602.045,22.949,-2.930,28.320,52.734,10.254
1635969602.049,61.523,-5.859,24.414,43.945,17.090
1635969602.052,74.219,-10.742,32.227,39.062,25.879
1635969602.056,29.785,-12.695,45.410,41.504,16.113
1635969602.060,13.672,-12.207,46.875,40.039,23.438
1635969602.064,44.434,-15.137,34.180,42.969,50.781
1635969602.068,74.707,-20.508,25.879,36.133,57.617
1635969602.063,42.480,-18.555,45.898,39.062,62.988
1635969602.067,28.320,-15.625,58.105,52.734,42.480
1635969602.071,52.734,-14.160,53.223,56.641,41.016
1635969602.075,97.168,-18.555,41.016,46.387,23.438
1635969602.079,73.730,-22.949,33.203,57.129,43.457
1635969602.083,37.109,-24.414,38.086,72.266,88.379
1635969602.087,50.781,-26.367,36.621,68.848,69.824
1635969602.090,93.750,-23.926,33.203,58.594,34.668
1635969602.094,78.125,-28.320,35.156,53.711,-18.555
1635969602.098,27.344,-31.738,40.039,57.129,9.766
1635969602.102,35.645,-25.391,45.898,59.570,49.316
1635969602.106,66.895,-24.414,44.922,62.012,19.531
1635969602.119,81.055,-29.297,50.781,54.688,44.922
1635969602.123,46.875,-28.809,55.176,63.477,43.457
1635969602.127,29.785,-27.344,55.176,69.824,12.695
1635969602.131,45.410,-26.855,53.711,53.223,25.879
1635969602.135,79.102,-23.438,47.363,35.645,48.828
1635969602.139,48.340,-21.484,53.223,45.410,15.625
1635969602.143,27.344,-21.484,62.012,50.293,-47.852
1635969602.146,45.898,-19.531,64.941,50.293,-1.465
1635969602.150,96.191,-13.672,65.918,54.199,59.570
1635969602.154,81.543,-11.230,69.824,49.805,53.711
1635969602.158,35.156,-11.719,71.777,53.223,26.855
1635969602.162,38.574,-11.230,67.871,60.059,-2.930
1635969602.157,59.570,-12.207,61.035,50.293,27.832
1635969602.161,66.895,-4.395,61.523,47.852,39.062
1635969602.165,26.367,0.488,69.336,57.129,-3.906
1635969602.169,20.020,-1.465,71.777,65.918,7.324
1635969602.173,63.965,-0.977,56.641,55.176,12.207
1635969602.177,85.449,2.441,51.758,36.621,-15.137
1635969602.181,36.133,6.836,69.336,48.340,21.973
1635969602.184,23.926,8.789,74.707,46.387,42.969
1635969602.188,56.641,13.672,64.941,42.969,14.160
1635969602.192,99.121,16.602,58.105,52.734,7.324
1635969602.196,66.406,15.625,71.777,50.293,-13.672
1635969602.200,34.668,15.137,84.961,48.340,13.184
1635969602.231,47.363,15.137,76.172,45.410,41.504
1635969602.235,81.055,10.254,51.270,36.621,2.441
1635969602.239,65.430,11.719,54.688,38.574,9.277
1635969602.243,18.555,16.113,66.406,43.457,32.227
1635969602.247,27.344,20.508,55.176,41.504,28.320
1635969602.251,77.637,20.996,34.668,42.969,64.941
1635969602.255,89.844,17.090,34.180,50.293,37.109
1635969602.258,43.457,19.531,54.199,50.781,-8.789
1635969602.262,37.109,20.508,58.594,52.734,9.766
1635969602.266,55.176,22.461,54.688,48.340,33.203
1635969602.270,80.566,23.438,50.293,41.504,15.137
1635969602.274,52.734,27.832,60.059,39.551,5.371
1635969602.252,31.250,39.551,75.684,40.039,-8.301
1635969602.256,55.176,37.109,73.730,53.223,26.855
1635969602.260,93.262,20.996,57.617,53.711,77.148
1635969602.264,62.012,17.090,56.641,54.199,48.340
1635969602.268,19.531,23.438,58.105,48.340,-0.488
1635969602.272,21.484,24.414,58.105,40.039,18.066
1635969602.276,62.988,18.066,51.270,41.016,25.391
1635969602.279,62.500,16.602,50.781,43.945,38.086
1635969602.283,6.836,17.090,58.594,46.875,70.312
1635969602.287,3.906,18.066,61.523,37.598,-3.418
1635969602.291,45.410,20.020,48.340,20.996,7.324
1635969602.295,61.523,20.996,42.969,20.996,66.895
1635969602.307,13.672,20.020,59.082,37.598,16.113
1635969602.311,-3.418,15.625,53.711,42.969,20.996
1635969602.315,26.855,13.184,40.039,27.344,-7.812
1635969602.319,62.500,16.602,40.039,5.859,-7.324
1635969602.323,23.926,19.043,45.410,8.301,1.465
1635969602.327,3.418,16.602,42.480,23.438,-20.020
1635969602.331,19.531,17.090,31.738,30.273,0.000
1635969602.334,40.039,21.484,30.273,23.438,-13.672
1635969602.338,28.809,24.902,40.527,15.625,35.156
1635969602.342,0.488,23.926,39.551,22.461,20.996
1635969602.346,-1.465,20.020,34.668,32.715,-17.090
1635969602.350,34.668,19.531,26.855,19.531,-5.371
1635969602.363,36.621,20.508,36.133,11.719,20.996
1635969602.367,-0.488,23.438,50.293,29.297,39.062
1635969602.371,8.789,27.344,42.480,43.457,8.301
1635969602.375,36.133,23.926,25.391,34.668,9.766
1635969602.379,48.340,17.578,22.949,20.508,6.836
1635969602.383,12.207,22.949,41.504,26.367,-1.465
1635969602.387,6.836,28.320,50.781,37.598,18.555
1635969602.390,37.598,29.785,41.992,34.180,11.719
1635969602.394,63.965,27.344,30.273,14.160,34.668
1635969602.398,30.273,27.832,39.062,8.301,86.914
1635969602.402,10.254,28.320,49.805,19.531,65.430
1635969602.406,26.855,24.902,40.527,25.391,28.320
1635969602.401,58.594,23.438,36.621,19.043,53.223
1635969602.405,50.293,24.902,38.086,21.484,25.879
1635969602.409,14.160,29.297,38.086,33.203,0.977
1635969602.413,18.555,28.809,34.668,35.156,26.855
1635969602.417,60.059,27.832,16.113,29.785,51.758
1635969602.421,62.012,24.902,14.648,32.715,58.105
1635969602.425,6.836,29.297,30.273,32.715,32.227
1635969602.428,-6.348,34.668,34.180,30.273,39.062
1635969602.432,30.273,28.320,29.297,27.344,56.641
1635969602.436,64.941,24.902,32.715,19.043,55.176
1635969602.440,27.832,26.367,41.016,26.367,67.871
1635969602.444,10.254,28.809,46.875,31.738,49.805
1635969602.456,37.109,33.203,43.945,31.250,16.602
1635969602.460,67.871,32.227,34.668,25.391,28.320
1635969602.464,41.992,33.691,42.969,30.762,69.336
1635969602.468,14.648,37.598,45.410,43.457,39.551
1635969602.472,18.066,31.250,26.367,36.621,-31.738
1635969602.476,58.105,26.367,16.602,24.414,13.184
1635969602.480,56.152,30.762,39.551,30.762,68.848
1635969602.483,11.230,36.133,55.176,35.156,9.766
1635969602.487,9.766,35.156,41.992,31.250,6.348
1635969602.491,42.969,29.785,26.855,18.555,62.012
1635969602.495,57.617,31.738,27.344,8.789,38.086
1635969602.499,15.137,40.527,37.109,26.367,41.016
1635969602.494,-9.277,41.016,39.551,37.109,48.340
1635969602.498,15.137,35.156,24.414,27.832,46.875
1635969602.502,49.316,36.133,18.066,21.484,48.828
1635969602.506,35.156,40.039,38.574,30.273,18.066
1635969602.510,15.625,39.551,47.852,30.273,17.090
1635969602.514,24.902,43.945,41.016,22.461,3.906
1635969602.518,59.082,41.016,25.879,19.043,-5.371
1635969602.521,31.738,41.016,40.527,21.973,61.523
1635969602.525,5.371,43.945,55.176,26.367,66.406
1635969602.529,8.789,35.156,45.410,26.367,29.785
1635969602.533,40.527,32.227,36.133,17.090,17.090
1635969602.537,43.945,34.668,30.273,9.277,2.441
1635969602.569,5.371,35.156,39.551,19.043,30.273
1635969602.573,10.742,34.668,43.457,21.484,6.348
1635969602.577,44.434,35.156,32.715,15.137,-27.344
1635969602.581,45.898,37.109,30.273,21.484,39.062
1635969602.585,4.883,36.621,36.133,23.926,49.805
1635969602.589,0.488,36.621,38.574,21.484,82.520
1635969602.593,35.645,36.133,23.926,20.508,66.406
1635969602.596,66.895,35.156,25.879,12.695,28.809
1635969602.600,33.691,38.574,39.062,20.508,73.242
1635969602.604,7.324,37.598,34.668,27.344,40.039
1635969602.608,24.414,36.133,33.691,19.043,28.320
1635969602.612,71.289,38.086,23.926,17.090,32.715
1635969602.588,55.664,32.715,33.203,27.344,26.855
1635969602.592,13.672,24.414,38.574,28.320,59.570
1635969602.596,23.926,26.367,25.879,26.367,41.992
1635969602.600,62.988,25.879,19.043,18.555,38.086
1635969602.604,57.129,25.879,20.996,12.207,31.738
1635969602.608,11.230,24.414,27.344,26.855,16.602
1635969602.612,0.977,20.508,18.555,28.320,38.574
1635969602.615,28.320,23.926,12.695,19.043,57.129
1635969602.619,60.547,25.391,23.926,16.113,65.430
1635969602.623,27.344,23.926,41.992,22.461,26.855
1635969602.627,4.883,24.414,51.758,23.926,-7.812
1635969602.631,30.273,19.531,43.457,26.367,21.484
1635969602.644,56.641,17.090,29.785,20.996,46.387
1635969602.648,21.484,18.066,34.668,22.461,71.777
1635969602.652,-6.836,18.555,47.852,36.133,73.242
1635969602.656,4.883,17.578,49.805,23.438,60.059
1635969602.660,45.410,19.043,31.738,6.348,25.879
1635969602.664,38.086,17.090,35.156,10.742,23.926
1635969602.668,-0.977,18.555,51.758,19.531,7.812
1635969602.671,6.836,25.391,46.387,20.996,2.441
1635969602.675,43.945,16.602,32.715,19.043,38.574
1635969602.679,38.086,13.184,34.180,11.230,65.430
1635969602.683,-4.883,18.066,46.875,12.207,124.023
1635969602.687,-11.230,20.020,33.691,15.625,125.488
1635969602.682,20.020,21.484,12.207,11.719,38.086
1635969602.686,54.199,14.160,8.789,8.789,-6.836
1635969602.690,24.414,15.137,14.160,8.789,-15.137
1635969602.694,-2.441,21.973,12.207,9.766,26.855
1635969602.698,13.184,20.020,7.812,3.906,51.758
1635969602.702,53.223,19.043,7.812,3.906,5.371
1635969602.706,30.762,20.508,28.809,9.766,31.738
1635969602.709,3.906,22.949,43.457,10.254,34.180
1635969602.713,9.766,16.602,28.809,13.672,37.598
1635969602.717,43.457,12.695,17.090,11.719,65.918
1635969602.721,43.945,17.578,19.531,17.090,-2.930
1635969602.725,8.789,21.973,23.926,29.297,-53.711
1635969602.719,0.000,22.461,32.227,25.879,1.953
1635969602.723,37.598,24.902,29.297,17.578,28.809
1635969602.727,57.129,25.391,14.648,13.672,54.688
1635969602.731,17.578,21.484,24.414,23.438,26.367
1635969602.735,8.301,20.508,33.691,33.691,-28.809
1635969602.739,32.715,21.973,25.879,26.855,37.109
1635969602.743,58.594,17.578,16.113,24.414,59.570
1635969602.746,26.367,15.625,26.855,37.598,31.738
1635969602.750,0.488,20.020,25.391,37.109,47.363
1635969602.754,12.695,24.902,15.625,31.250,41.992
1635969602.758,57.617,21.973,20.996,23.438,31.250
1635969602.762,41.504,17.578,38.086,26.855,-3.906
1635969602.776,6.348,21.484,44.434,29.297,1.465
1635969602.780,13.672,18.555,30.273,28.320,17.578
1635969602.784,48.828,19.043,16.113,26.367,22.461
1635969602.788,59.082,25.391,21.973,21.973,37.598
1635969602.792,10.742,27.832,29.297,18.555,87.402
1635969602.796,-0.977,28.809,25.879,15.625,62.012
1635969602.800,32.715,24.902,21.973,17.578,-2.930
1635969602.803,43.945,35.645,24.902,12.207,101.562
1635969602.807,12.695,43.945,36.621,17.090,68.359
1635969602.811,-9.277,35.156,37.598,16.113,0.488
1635969602.815,7.812,43.457,23.438,8.789,40.527
1635969602.819,44.434,43.945,23.926,-0.488,-24.414
1635969602.813,13.672,37.598,34.668,-8.789,-10.742
1635969602.817,-14.160,56.152,52.734,-9.766,56.152
1635969602.821,-21.973,71.289,66.895,-22.461,21.484
1635969602.825,-0.488,65.430,65.918,-37.109,14.648
1635969602.829,-25.391,68.359,73.242,-42.969,31.738
1635969602.833,-83.984,73.242,79.102,-56.152,38.086
1635969602.837,-105.957,88.379,70.801,-89.844,8.301
1635969602.840,-86.426,104.492,41.504,-125.000,5.371
1635969602.844,-102.539,111.816,38.086,-130.859,18.555
1635969602.848,-178.223,130.859,62.988,-161.621,15.137
1635969602.852,-216.797,143.555,98.145,-217.773,46.875
1635969602.856,-212.402,138.184,101.562,-235.840,65.918
1635969602.869,-215.820,131.836,84.473,-245.605,50.293
1635969602.873,-267.090,124.023,98.145,-255.371,1.465
1635969602.877,-284.180,127.441,105.469,-241.211,-3.418
1635969602.881,-250.488,126.953,93.262,-236.816,42.969
1635969602.885,-208.984,111.328,83.496,-242.676,26.367
1635969602.889,-222.168,107.910,93.750,-224.609,8.789
1635969602.893,-231.934,108.887,91.309,-200.684,14.160
1635969602.896,-201.660,103.027,86.426,-182.617,-3.906
1635969602.900,-137.695,91.797,87.402,-173.340,49.316
1635969602.904,-132.324,87.402,93.262,-150.879,93.750
1635969602.908,-151.367,85.938,91.309,-115.234,62.988
1635969602.912,-120.605,73.242,84.961,-93.750,50.781
1635969602.906,-70.801,65.430,69.824,-89.355,32.227
1635969602.910,-44.922,67.383,59.570,-83.496,10.742
1635969602.914,-66.406,62.012,63.477,-57.129,29.785
1635969602.918,-58.105,49.805,45.410,-29.297,94.238
1635969602.922,-10.742,42.480,26.855,-11.230,79.102
1635969602.926,41.992,37.109,26.367,12.695,-13.184
1635969602.930,29.785,33.691,34.180,45.410,-47.363
1635969602.933,23.926,33.691,36.621,59.082,12.207
1635969602.937,51.758,25.879,19.043,62.012,44.434
1635969602.941,94.238,11.230,-6.348,60.547,9.766
1635969602.945,87.402,11.230,-6.836,75.195,3.418
1635969602.949,71.289,11.230,-14.648,92.285,15.137
1635969602.962,85.449,7.324,-41.992,100.098,26.367
1635969602.966,125.000,8.301,-67.383,97.168,9.766
1635969602.970,129.395,4.395,-47.363,99.121,13.184
1635969602.974,105.469,-0.977,-12.207,114.746,6.836
1635969602.978,103.027,-6.348,-10.254,123.535,-0.977
1635969602.982,130.371,-11.719,-22.949,118.652,26.855
1635969602.986,155.762,-9.277,-27.832,112.305,40.039
1635969602.989,127.930,-4.395,-9.277,116.699,72.754
1635969602.993,112.305,-6.348,-2.930,125.488,95.215
1635969602.997,122.559,-10.742,-6.348,121.094,61.035
1635969603.001,150.879,-7.324,-4.883,107.422,42.480
1635969603.005,120.605,-1.953,1.465,117.188,6.348
1635969603.001,101.562,-4.883,8.301,131.836,0.000
1635969603.005,120.117,-9.277,5.371,130.859,10.254
1635969603.009,149.414,-8.301,3.418,114.258,34.668
1635969603.013,127.930,-4.883,13.672,108.887,28.809
1635969603.017,95.215,-4.883,15.137,107.422,-22.949
1635969603.021,99.121,-2.441,8.789,109.863,-2.930
1635969603.025,133.301,-0.977,4.883,102.539,7.324
1635969603.028,136.230,-1.953,11.719,92.773,11.719
1635969603.032,82.520,-1.465,20.020,107.910,2.930
1635969603.036,74.219,-5.371,9.766,107.422,-3.418
1635969603.040,106.445,-9.766,4.883,89.844,46.875
1635969603.044,115.234,-7.812,13.184,87.891,59.570
1635969603.057,80.566,-0.977,16.113,98.145,8.789
1635969603.061,65.430,-0.977,17.090,96.680,11.230
1635969603.065,88.867,-0.488,15.137,88.379,42.969
1635969603.069,120.117,-1.953,16.113,83.008,38.574
1635969603.073,96.191,-1.465,24.902,90.332,12.207
1635969603.077,68.848,2.930,30.273,93.262,15.625
1635969603.081,72.754,-0.977,20.020,77.637,54.688
1635969603.084,120.117,-2.441,19.043,72.754,76.660
1635969603.088,111.328,-1.465,32.715,88.867,78.125
1635969603.092,66.895,0.000,36.621,93.262,53.711
1635969603.096,67.871,3.906,31.250,84.961,22.461
1635969603.100,105.469,7.812,21.484,83.008,54.688
1635969603.095,119.141,11.230,21.484,76.660,69.336
1635969603.099,74.707,12.695,32.227,70.312,20.996
1635969603.103,61.035,13.672,25.391,67.383,-9.277
1635969603.107,76.660,15.137,13.672,69.336,-26.855
1635969603.111,99.609,15.625,19.531,63.965,7.324
1635969603.115,67.871,18.066,24.414,62.988,32.227
1635969603.119,41.504,19.043,23.438,60.059,7.812
1635969603.122,55.176,20.020,21.973,52.734,39.062
1635969603.126,88.379,21.973,12.207,53.223,56.641
1635969603.130,57.617,22.461,17.090,50.293,18.066
1635969603.134,26.367,20.996,25.879,53.711,6.348
1635969603.138,39.551,19.531,21.973,62.500,20.996
1635969603.150,79.590,19.531,16.113,63.477,17.090
1635969603.154,76.660,19.043,18.555,55.176,2.441
1635969603.158,28.320,21.484,23.926,47.363,59.082
1635969603.162,20.020,23.438,31.250,50.293,36.133
1635969603.166,53.223,23.926,32.715,41.992,8.789
1635969603.170,62.500,24.902,37.598,35.645,73.242
1635969603.174,22.949,27.832,42.969,49.316,33.203
1635969603.177,16.113,29.785,41.504,50.781,-14.648
1635969603.181,55.664,28.320,31.738,42.969,-13.184
1635969603.185,83.984,23.438,24.414,40.039,-5.371
1635969603.189,52.734,25.879,36.621,48.340,18.066
1635969603.193,33.203,29.297,36.133,55.664,25.391
1635969603.207,45.898,30.762,35.156,40.527,48.340
1635969603.211,77.148,31.738,35.645,29.297,73.242
1635969603.215,41.992,23.926,36.621,39.551,26.855
1635969603.219,6.348,26.367,41.992,45.410,-30.762
1635969603.223,24.414,29.297,41.504,35.156,5.371
1635969603.227,62.012,26.367,32.715,23.438,30.762
1635969603.231,54.199,28.320,35.645,30.273,-5.371
1635969603.234,15.137,29.297,42.480,40.527,41.016
1635969603.238,16.602,30.762,34.180,39.551,65.430
1635969603.242,47.363,30.273,19.043,30.273,3.906
1635969603.246,65.430,30.273,26.367,26.855,-12.207
1635969603.250,24.414,29.785,41.504,40.527,82.031
1635969603.263,12.207,33.691,39.062,43.945,116.699
1635969603.267,41.504,37.598,32.715,36.621,48.340
1635969603.271,69.824,37.109,23.438,33.691,14.648
1635969603.275,34.668,38.086,27.832,38.086,16.113
1635969603.279,-0.977,37.109,38.086,42.480,24.414
1635969603.283,13.672,38.574,29.785,39.062,19.531
1635969603.287,64.941,38.086,19.531,21.484,30.273
1635969603.290,45.898,37.598,21.973,22.949,13.184
1635969603.294,-2.441,37.598,25.391,26.855,9.277
1635969603.298,4.883,37.109,27.344,20.996,10.254
1635969603.302,52.734,35.645,27.832,22.949,19.043
1635969603.306,56.152,38.086,30.273,28.320,70.312
1635969603.282,7.324,37.598,37.109,29.785,61.523
1635969603.286,8.301,32.227,41.504,30.762,55.664
1635969603.290,48.828,29.785,35.156,27.832,45.410
1635969603.294,70.801,31.738,29.785,30.762,41.016
1635969603.298,27.832,36.621,33.691,41.992,23.926
1635969603.302,9.766,34.180,41.016,42.969,14.648
1635969603.306,43.457,32.715,36.133,36.133,69.824
1635969603.309,69.824,37.598,22.461,27.832,88.867
1635969603.313,17.090,33.691,27.832,24.414,37.598
1635969603.317,-11.719,29.785,32.715,29.297,0.488
1635969603.321,14.160,34.668,26.367,32.227,-11.230
1635969603.325,60.547,36.133,13.672,29.785,31.738
1635969603.337,58.105,39.062,18.066,33.691,56.152
1635969603.341,21.484,42.480,22.461,41.992,64.453
1635969603.345,18.555,41.992,7.812,39.062,49.805
1635969603.349,62.988,41.992,3.906,28.320,-22.461
1635969603.353,70.312,44.434,5.371,28.809,18.066
1635969603.357,36.621,45.898,10.254,35.156,51.758
1635969603.361,32.227,44.922,15.625,38.574,31.250
1635969603.364,45.410,40.527,5.371,32.715,44.922
1635969603.368,56.641,34.180,-1.465,25.879,30.273
1635969603.372,15.625,32.715,7.812,32.227,20.996
1635969603.376,4.883,32.227,2.441,27.344,48.828
1635969603.380,21.973,30.273,-9.277,24.414,34.668
1635969603.395,65.430,30.273,-5.859,23.438,26.855
1635969603.399,59.570,33.203,6.836,21.484,10.742
1635969603.403,18.555,33.203,15.625,27.344,7.812
1635969603.407,16.602,28.809,14.648,28.320,26.855
1635969603.411,50.781,23.926,-1.465,20.996,26.367
1635969603.415,49.805,25.391,-2.441,18.555,29.297
1635969603.419,6.836,28.320,-0.977,24.902,20.020
1635969603.422,6.348,29.785,-8.789,24.902,34.668
1635969603.426,39.062,27.344,-5.859,19.531,49.805
1635969603.430,46.387,32.227,-2.930,14.648,39.062
1635969603.434,13.184,38.086,0.000,17.090,26.855
1635969603.438,-3.906,36.621,9.277,25.391,-32.227
1635969603.432,20.508,38.086,16.602,18.066,7.324
1635969603.436,54.199,39.062,12.207,14.160,33.203
1635969603.440,20.996,40.039,18.555,20.020,15.625
1635969603.444,-1.465,37.109,29.297,15.625,20.020
1635969603.448,14.648,32.715,17.090,16.602,21.484
1635969603.452,55.664,35.156,8.301,7.812,60.059
1635969603.456,37.598,38.086,17.090,7.812,71.289
1635969603.459,9.277,39.062,28.320,22.949,25.391
1635969603.463,16.602,32.227,28.809,25.879,-36.621
1635969603.467,44.922,24.414,16.602,19.531,-26.367
1635969603.471,38.086,24.902,22.949,16.602,19.531
1635969603.475,-4.395,23.926,31.738,25.879,38.086
1635969603.471,-6.836,21.973,26.367,23.438,38.574
1635969603.475,27.344,20.020,27.344,15.137,38.086
1635969603.479,52.246,20.996,29.785,18.066,8.301
1635969603.483,17.578,24.414,34.180,25.879,14.648
1635969603.487,-3.418,20.020,33.203,28.320,8.301
1635969603.491,19.531,19.043,23.438,20.996,-14.648
1635969603.495,58.594,23.926,19.531,14.648,39.062
1635969603.498,35.645,27.832,29.785,22.949,20.020
1635969603.502,9.766,24.414,26.855,25.391,-34.668
1635969603.506,22.949,21.973,12.695,21.973,-7.324
1635969603.510,69.824,24.414,6.836,20.508,71.289
1635969603.514,49.805,27.344,11.230,20.508,67.383
1635969603.525,1.465,24.414,20.996,24.902,24.902
1635969603.529,8.789,19.531,15.137,22.949,12.207
1635969603.533,50.293,19.043,5.859,8.789,2.930
1635969603.537,49.316,20.996,10.254,10.254,25.879
1635969603.541,1.953,20.020,24.902,26.855,22.461
1635969603.545,-4.883,18.066,32.227,27.832,12.695
1635969603.549,15.625,19.531,13.184,14.648,12.695
1635969603.552,30.273,18.555,10.742,1.953,31.738
1635969603.556,0.000,18.555,35.645,8.301,60.059
1635969603.560,-12.695,17.578,33.691,20.996,32.715
1635969603.564,11.230,18.066,18.066,18.066,-10.254
1635969603.568,43.457,18.066,11.719,12.695,14.648
1635969603.562,18.066,17.578,27.344,20.508,3.418
1635969603.566,-4.395,20.020,32.227,22.461,9.766
1635969603.570,-5.859,17.578,23.438,22.461,7.324
1635969603.574,33.203,15.137,20.508,23.926,10.254
1635969603.578,25.879,8.301,23.926,10.254,15.137
1635969603.582,-10.254,2.930,34.668,13.672,46.387
1635969603.586,1.953,6.836,28.320,18.066,77.148
1635969603.589,40.527,6.348,16.113,6.836,44.922
1635969603.593,49.316,5.859,17.090,9.277,37.598
1635969603.597,4.395,16.602,21.484,19.043,2.930
1635969603.601,0.000,19.531,24.414,19.043,-20.508
1635969603.605,26.367,10.742,19.043,20.508,28.809
1635969603.619,48.828,4.395,18.555,16.602,27.344
1635969603.623,17.578,8.789,24.902,14.648,28.320
1635969603.627,-3.418,12.207,27.832,20.508,43.945
1635969603.631,13.184,11.719,25.391,22.949,-0.977
1635969603.635,49.316,13.184,20.020,20.508,-27.832
1635969603.639,21.484,19.043,28.809,21.484,0.000
1635969603.643,-5.859,25.391,30.762,28.809,33.691
1635969603.646,4.395,20.508,18.555,29.297,29.785
1635969603.650,41.016,16.602,7.324,16.602,11.719
1635969603.654,42.480,20.508,15.625,19.043,39.062
1635969603.658,9.766,22.949,25.879,22.949,61.035
1635969603.662,14.160,25.391,25.879,22.949,12.695
1635969603.657,42.969,26.367,21.484,20.020,24.902
1635969603.661,49.805,28.320,18.555,14.648,49.316
1635969603.665,1.953,27.344,30.762,20.996,67.871
1635969603.669,-12.207,19.531,31.250,25.391,22.949
1635969603.673,18.066,16.602,21.484,17.090,3.418
1635969603.677,46.875,20.508,14.648,13.184,6.836
1635969603.681,9.766,25.391,22.949,17.578,-7.812
1635969603.684,-11.230,24.902,38.086,18.555,-8.789
1635969603.688,6.348,24.414,35.645,14.160,-5.371
1635969603.692,49.805,28.320,23.438,5.371,29.785
1635969603.696,41.504,32.227,34.668,12.207,61.523
1635969603.700,-2.441,30.762,45.410,23.438,57.617
1635969603.731,7.812,28.320,41.016,23.926,45.410
1635969603.735,46.875,19.043,23.438,16.113,4.395
1635969603.739,43.945,16.113,16.602,10.742,1.465
1635969603.743,14.160,20.996,35.645,19.043,-8.301
1635969603.747,19.043,25.879,38.574,27.344,2.441
1635969603.751,47.852,25.391,25.391,24.414,76.172
1635969603.755,59.082,20.508,20.996,16.602,89.355
1635969603.758,12.207,23.438,28.809,26.855,41.992
1635969603.762,-3.906,23.438,34.180,35.645,63.965
1635969603.766,22.949,19.531,25.879,31.738,75.684
1635969603.770,55.176,18.555,15.625,24.902,25.391
1635969603.774,30.762,21.484,17.578,25.879,58.105
1635969603.751,-1.465,24.414,26.855,30.762,76.172
1635969603.755,9.277,25.879,25.879,29.785,33.691
1635969603.759,62.500,26.855,17.578,21.973,21.484
1635969603.763,44.434,23.926,17.090,22.461,43.945
1635969603.767,0.000,21.484,19.531,29.297,71.289
1635969603.771,0.000,20.508,15.137,20.996,23.926
1635969603.775,41.992,20.508,2.441,16.113,59.570
1635969603.778,50.781,24.902,8.789,19.531,57.129
1635969603.782,8.789,29.297,24.414,25.391,14.160
1635969603.786,6.348,28.320,22.461,30.273,18.066
1635969603.790,44.434,26.855,14.160,29.297,16.113
1635969603.794,63.965,27.344,13.184,24.414,19.531
1635969603.806,22.949,28.320,25.879,20.996,-7.812
1635969603.810,-1.953,27.832,21.484,21.973,16.602
1635969603.814,12.695,23.926,9.277,19.531,34.180
1635969603.818,61.035,22.461,13.184,15.625,28.809
1635969603.822,36.621,29.297,20.996,22.949,30.762
1635969603.826,1.465,30.762,16.113,26.367,21.973
1635969603.830,20.996,24.414,4.395,20.508,49.316
1635969603.833,61.523,23.438,-6.348,5.859,84.473
1635969603.837,43.457,28.320,0.977,7.324,32.227
1635969603.841,-6.836,31.250,8.301,20.508,-10.254
1635969603.845,-2.441,29.297,12.695,14.648,29.297
1635969603.849,38.574,26.367,8.789,14.160,27.344
1635969603.847,48.828,26.367,10.254,16.113,3.906
1635969603.851,4.395,27.832,18.555,14.160,27.832
1635969603.855,-6.348,27.344,14.160,16.113,23.926
1635969603.859,29.785,25.391,4.395,14.648,7.812
1635969603.863,64.453,23.438,3.418,18.555,1.953
1635969603.867,32.715,24.414,14.648,27.344,0.000
1635969603.871,12.207,24.902,11.719,28.809,3.418
1635969603.874,28.320,23.438,6.348,26.367,19.043
1635969603.878,65.918,24.902,1.953,23.926,64.453
1635969603.882,47.363,27.832,6.348,26.367,29.297
1635969603.886,8.789,29.297,17.090,30.273,13.184
1635969603.890,15.625,23.926,18.066,35.645,28.320
1635969603.900,60.059,23.926,14.648,36.133,45.898
1635969603.904,52.734,28.809,13.672,30.273,83.008
1635969603.908,7.324,30.762,24.902,32.715,39.551
1635969603.912,8.789,33.203,33.203,44.434,17.578
1635969603.916,44.434,28.809,21.484,38.086,92.285
1635969603.920,63.965,25.391,12.695,24.414,75.684
1635969603.924,21.973,30.273,20.996,25.391,20.020
1635969603.927,5.371,34.668,31.738,28.320,34.180
1635969603.931,38.086,34.668,25.391,29.297,35.645
1635969603.935,73.730,32.715,15.625,21.484,23.926
1635969603.939,30.762,30.762,25.391,27.832,50.781
1635969603.943,0.488,31.250,29.297,37.598,22.461
1635969603.939,16.602,34.668,31.738,30.762,2.930
1635969603.943,60.059,32.715,32.227,24.902,2.930
1635969603.947,51.270,34.668,40.527,34.668,45.898
1635969603.951,6.836,37.109,42.480,46.387,74.219
1635969603.955,12.207,35.645,34.180,44.434,18.066
1635969603.959,61.523,39.062,24.414,35.156,53.711
1635969603.963,58.105,37.598,28.320,30.273,71.289
1635969603.966,9.277,34.668,43.945,36.133,41.504
1635969603.970,6.348,33.203,38.086,39.551,53.711
1635969603.974,36.133,31.250,24.902,21.973,58.594
1635969603.978,59.082,34.180,26.855,11.230,59.570
1635969603.982,12.695,34.180,31.250,24.414,54.688
1635969604.002,-14.160,30.762,26.855,27.344,31.250
1635969604.006,13.672,30.273,9.277,15.625,55.664
1635969604.010,56.152,31.738,-0.488,22.949,72.266
1635969604.014,31.250,31.738,16.602,29.297,21.484
1635969604.018,0.488,29.297,20.996,17.578,8.789
1635969604.022,17.090,25.879,15.625,20.996,23.926
1635969604.026,64.453,22.949,8.789,17.090,34.668
1635969604.029,53.223,27.832,14.160,15.625,45.898
1635969604.033,9.766,31.250,26.367,30.762,60.547
1635969604.037,11.719,28.809,20.020,31.250,51.270
1635969604.041,53.223,26.367,4.883,14.648,31.250
1635969604.045,49.805,25.391,6.836,8.789,25.879
1635969604.032,-7.324,25.391,28.320,17.578,17.090
1635969604.036,-8.789,25.391,33.203,21.973,-9.277
1635969604.040,31.738,22.949,22.461,19.043,5.859
1635969604.044,51.270,20.508,21.484,19.043,29.297
1635969604.048,8.789,21.973,37.109,31.738,51.758
1635969604.052,-5.859,20.508,29.297,32.227,46.387
1635969604.056,15.625,18.555,11.719,26.855,47.363
1635969604.059,57.129,21.973,11.230,20.996,31.738
1635969604.063,31.250,21.973,28.809,33.203,-5.859
1635969604.067,2.930,20.020,39.062,42.480,27.832
1635969604.071,19.043,22.461,30.762,26.855,44.922
1635969604.075,58.594,21.973,23.438,27.344,37.598
1635969604.106,61.523,22.461,30.762,38.086,32.227
1635969604.110,20.508,28.320,37.109,40.039,20.020
1635969604.114,12.207,33.691,28.320,36.621,40.527
1635969604.118,63.477,32.715,20.996,31.250,26.855
1635969604.122,71.777,32.227,24.414,34.180,50.781
1635969604.126,15.625,28.809,31.738,35.645,51.270
1635969604.130,5.859,24.902,23.438,35.156,-10.742
1635969604.133,39.062,27.344,14.160,35.156,-32.227
1635969604.137,75.195,27.344,18.555,31.738,23.438
1635969604.141,41.992,26.367,35.156,30.273,60.059
1635969604.145,10.742,26.855,36.621,30.273,41.504
1635969604.149,21.484,25.879,18.066,32.715,19.043
1635969604.144,61.523,27.344,13.184,26.855,57.617
1635969604.148,36.133,34.668,28.809,30.273,69.824
1635969604.152,-2.930,33.203,34.668,34.180,15.625
1635969604.156,3.906,29.297,27.344,25.391,-19.531
1635969604.160,48.340,29.785,13.184,20.508,-10.254
1635969604.164,42.969,22.949,14.648,22.461,3.906
1635969604.168,-2.441,20.508,24.902,29.297,52.734
1635969604.171,-3.906,27.344,29.297,30.762,45.898
1635969604.175,31.250,28.809,27.344,24.902,5.371
1635969604.179,55.176,31.738,20.020,22.461,-0.977
1635969604.183,7.324,37.598,25.879,19.531,1.465
1635969604.187,-9.766,38.574,24.414,17.090,20.508
1635969604.181,28.320,35.645,12.207,22.461,17.578
1635969604.185,65.918,34.180,8.301,15.625,54.688
1635969604.189,28.809,34.180,20.508,18.066,71.289
1635969604.193,0.488,34.180,35.645,26.855,60.059
1635969604.197,20.508,31.250,27.832,24.414,65.918
1635969604.201,56.641,31.738,14.160,21.484,49.805
1635969604.205,32.227,33.203,21.973,24.414,9.277
1635969604.208,-9.766,30.762,31.250,28.809,-7.324
1635969604.212,-4.883,33.203,33.691,27.344,39.551
1635969604.216,41.016,36.133,20.508,25.879,59.082
1635969604.220,48.828,32.715,19.531,24.902,22.461
1635969604.224,2.930,30.273,27.344,27.344,-0.977
1635969604.256,5.371,29.297,30.762,28.809,-2.930
1635969604.260,35.645,28.809,28.320,21.484,7.324
1635969604.264,45.410,27.344,16.602,11.719,63.477
1635969604.268,3.418,28.320,22.461,23.438,49.805
1635969604.272,-7.812,36.621,29.297,32.227,-3.906
1635969604.276,20.508,39.062,26.367,30.762,41.992
1635969604.280,48.828,29.297,19.531,21.973,24.902
1635969604.283,24.902,27.344,29.785,22.949,-0.488
1635969604.287,3.418,30.273,34.180,38.086,-0.488
1635969604.291,19.043,31.738,25.391,35.645,4.883
1635969604.295,61.523,31.250,16.113,24.414,11.230
1635969604.299,47.852,30.762,17.578,27.344,47.852
1635969604.296,1.953,34.668,20.996,35.645,65.918
1635969604.300,3.418,40.039,11.230,31.738,28.320
1635969604.304,48.828,34.180,7.324,30.273,40.527
1635969604.308,60.547,30.273,14.648,25.879,30.762
1635969604.312,14.648,35.645,22.461,18.066,3.906
1635969604.316,4.395,39.551,29.297,24.902,6.348
1635969604.320,40.039,40.527,19.531,25.879,22.461
1635969604.323,60.059,40.039,15.625,20.508,21.973
1635969604.327,15.625,40.039,31.250,20.508,15.137
1635969604.331,1.465,44.434,28.809,28.320,33.691
1635969604.335,26.367,46.387,26.367,33.203,42.480
1635969604.339,56.641,38.574,20.996,21.973,18.066
1635969604.334,23.438,36.621,24.414,20.020,23.438
1635969604.338,-7.324,38.086,26.855,21.973,-2.441
1635969604.342,9.766,39.551,20.020,19.531,12.207
1635969604.346,62.988,36.133,14.648,14.648,10.254
1635969604.350,48.340,34.180,13.672,12.695,22.949
1635969604.354,-6.836,39.062,18.555,21.484,67.871
1635969604.358,-0.488,42.480,21.484,23.438,12.695
1635969604.361,42.480,37.109,20.508,14.160,-1.953
1635969604.365,58.105,30.762,17.090,14.648,35.156
1635969604.369,15.137,35.156,22.461,16.113,32.227
1635969604.373,2.441,35.156,29.297,12.207,29.297
1635969604.377,39.062,29.785,24.414,12.695,33.203
1635969604.370,77.637,30.762,20.996,10.742,66.406
1635969604.374,41.504,35.645,30.762,21.484,70.312
1635969604.378,18.555,34.668,33.203,29.785,8.301
1635969604.382,33.691,27.344,24.902,25.391,-14.160
1635969604.386,68.359,20.508,12.207,21.973,55.664
1635969604.390,45.898,21.973,17.578,22.461,40.039
1635969604.394,0.977,24.902,20.020,22.949,-7.812
1635969604.397,0.488,21.973,13.184,23.926,23.926
1635969604.401,48.340,22.461,5.859,14.648,22.949
1635969604.405,51.758,27.344,7.324,10.742,55.176
1635969604.409,2.930,25.879,19.043,24.414,47.852
1635969604.413,-2.930,19.043,16.602,19.531,-27.344
1635969604.426,40.527,17.578,13.184,16.602,-2.930
1635969604.430,64.453,17.578,20.020,21.973,22.461
1635969604.434,20.020,17.578,29.785,20.996,7.324
1635969604.438,-0.977,17.090,27.832,25.879,9.766
1635969604.442,14.648,15.137,16.602,22.461,29.785
1635969604.446,51.758,14.648,8.789,8.789,13.672
1635969604.450,26.367,16.602,20.508,13.672,6.348
1635969604.453,0.488,22.461,32.227,25.879,19.531
1635969604.457,16.602,24.414,25.391,24.414,31.738
1635969604.461,52.246,20.020,9.277,15.625,57.617
1635969604.465,32.227,22.461,20.508,20.996,6.836
1635969604.469,-9.277,25.391,31.738,29.785,-1.465
1635969604.464,-0.488,24.902,21.973,17.578,23.438
1635969604.468,46.875,23.438,16.602,4.395,40.039
1635969604.472,40.527,29.297,24.902,3.906,69.336
1635969604.476,-3.906,41.992,32.227,18.555,30.762
1635969604.480,2.441,36.133,23.926,34.180,8.789
1635969604.484,31.738,21.484,10.254,27.832,20.508
1635969604.488,54.688,24.414,4.395,20.020,34.180
1635969604.491,18.555,26.367,17.578,31.250,57.129
1635969604.495,0.488,25.879,24.902,36.133,56.641
1635969604.499,22.461,26.367,11.230,24.414,60.059
1635969604.503,64.941,21.973,2.441,12.207,65.430
1635969604.507,36.133,19.531,10.742,12.695,1.465
1635969604.519,6.348,22.949,23.438,19.043,-18.066
1635969604.523,23.438,28.809,21.484,21.973,29.785
1635969604.527,63.965,30.273,8.301,15.137,10.742
1635969604.531,46.875,27.344,17.578,10.742,17.578
1635969604.535,-2.930,23.926,23.926,21.973,45.898
1635969604.539,0.000,24.414,17.578,31.250,32.227
1635969604.543,46.387,25.391,5.859,27.832,-2.441
1635969604.546,52.246,21.484,6.836,21.484,0.977
1635969604.550,5.371,16.602,19.531,33.691,25.879
1635969604.554,2.441,16.602,23.926,41.016,17.578
1635969604.558,48.340,21.973,16.602,34.668,40.039
1635969604.562,79.102,25.391,6.836,27.344,34.668
1635969604.559,34.180,26.367,14.648,30.273,-3.906
1635969604.563,2.930,26.367,20.020,31.250,-16.113
1635969604.567,16.113,24.414,15.137,27.344,27.832
1635969604.571,67.383,29.297,5.859,23.438,22.461
1635969604.575,31.250,31.738,19.043,24.902,23.438
1635969604.579,-15.625,24.902,25.879,29.785,47.363
1635969604.583,4.395,21.973,14.648,23.438,7.324
1635969604.586,56.152,20.020,8.789,10.742,93.262
1635969604.590,53.223,24.414,8.301,16.113,65.430
1635969604.594,7.324,29.785,17.090,27.832,-1.953
1635969604.598,10.254,27.832,16.602,23.438,-3.418
1635969604.602,45.410,25.391,7.812,18.555,-19.531
1635969604.594,54.199,29.297,10.742,20.996,-39.551
1635969604.598,10.254,34.180,22.461,30.273,-15.137
1635969604.602,5.371,37.109,26.367,33.203,67.871
1635969604.606,37.109,26.855,15.625,26.855,60.059
1635969604.610,58.105,21.484,3.906,27.344,23.438
1635969604.614,23.438,29.785,12.695,22.949,11.719
1635969604.618,0.977,29.785,17.578,16.113,-16.113
1635969604.621,20.020,30.273,17.578,21.973,25.879
1635969604.625,58.105,32.715,7.324,20.020,48.340
1635969604.629,34.180,31.738,3.906,12.695,8.789
1635969604.633,0.977,33.691,18.066,19.531,-17.578
1635969604.637,4.395,29.785,24.902,21.973,63.477
1635969604.651,44.434,20.508,13.672,14.648,81.055
1635969604.655,44.922,20.508,11.230,19.531,54.199
1635969604.659,-3.906,24.414,21.484,23.926,11.719
1635969604.663,-3.906,26.367,26.855,26.367,-10.254
1635969604.667,38.086,22.949,21.484,20.996,29.297
1635969604.671,57.617,23.438,20.508,18.066,32.227
1635969604.675,18.066,28.809,24.414,32.227,24.414
1635969604.678,4.883,28.320,30.762,41.504,13.672
1635969604.682,42.480,26.855,30.762,30.762,20.996
1635969604.686,78.125,25.391,25.391,21.973,77.637
1635969604.690,32.715,27.344,36.133,32.227,75.195
1635969604.694,2.930,29.785,26.367,35.645,69.824
1635969604.689,24.414,32.715,15.625,35.645,56.641
1635969604.693,66.406,31.738,18.555,29.785,53.223
1635969604.697,46.387,29.785,24.902,26.855,72.266
1635969604.701,6.836,30.273,30.273,24.902,35.645
1635969604.705,18.555,34.668,29.785,26.855,12.207
1635969604.709,58.105,33.691,21.484,25.879,22.461
1635969604.713,47.852,27.832,16.113,20.020,31.250
1635969604.716,-3.418,26.367,25.879,22.461,8.789
1635969604.720,-8.789,23.926,25.391,24.414,2.441
1635969604.724,27.344,23.438,13.184,13.672,35.156
1635969604.728,46.387,24.902,13.184,1.465,30.273
1635969604.732,14.160,30.273,24.414,16.602,17.578
1635969604.744,-3.418,32.715,32.715,31.250,17.090
1635969604.748,13.672,29.785,29.297,35.645,18.066
1635969604.752,59.082,29.785,19.531,30.762,53.223
1635969604.756,26.855,34.668,21.484,30.273,45.898
1635969604.760,-18.066,32.227,30.273,29.297,-2.441
1635969604.764,5.371,33.691,27.832,17.090,4.395
1635969604.768,58.594,39.062,16.113,12.207,3.906
1635969604.771,41.992,35.645,25.879,16.602,19.531
1635969604.775,5.859,33.691,40.527,25.391,40.039
1635969604.779,12.207,31.250,36.133,24.902,-11.719
1635969604.783,47.852,28.809,23.926,16.113,26.855
1635969604.787,53.711,30.273,28.809,17.090,45.410
1635969604.838,3.906,27.344,37.598,28.809,-21.973
1635969604.842,-5.859,23.438,21.973,30.273,-26.367
1635969604.846,38.086,25.879,14.648,24.902,10.254
1635969604.850,66.895,26.855,15.137,27.832,22.461
1635969604.854,10.254,25.879,24.414,29.297,29.297
1635969604.858,-19.531,20.508,33.203,21.484,15.137
1635969604.862,0.977,14.160,29.785,17.578,41.016
1635969604.865,50.293,19.043,23.926,21.973,57.617
1635969604.869,38.086,22.461,30.762,35.645,7.324
1635969604.873,-5.859,19.531,32.227,30.762,-3.906
1635969604.877,3.906,20.020,24.414,20.996,-6.836
1635969604.881,61.035,21.973,19.043,20.996,44.922
1635969604.894,55.664,24.902,23.926,26.855,60.059
1635969604.898,4.395,24.414,25.391,28.320,8.789
1635969604.902,3.906,26.367,23.438,17.578,30.273
1635969604.906,36.133,28.809,17.578,12.207,68.359
1635969604.910,47.852,30.762,10.742,16.602,73.730
1635969604.914,6.348,36.621,29.785,24.414,65.430
1635969604.918,-7.812,38.086,39.062,23.438,65.918
1635969604.921,30.762,38.086,28.809,22.461,53.223
1635969604.925,66.406,35.156,26.367,26.855,52.246
1635969604.929,28.320,31.738,34.668,32.715,40.039
1635969604.933,0.977,33.691,40.039,24.414,13.184
1635969604.937,20.020,33.203,36.133,16.113,18.555
1635969604.951,66.406,32.715,33.691,18.555,26.367
1635969604.955,47.852,31.738,43.945,24.414,-15.137
1635969604.959,17.578,28.809,38.574,27.344,0.000
1635969604.963,21.973,31.250,25.391,28.809,30.273
1635969604.967,57.129,33.691,25.391,22.461,47.363
1635969604.971,51.758,29.297,27.344,17.578,32.227
1635969604.975,-0.977,26.855,33.203,19.531,-12.695
1635969604.978,0.488,29.785,34.180,20.508,26.367
1635969604.982,34.668,30.273,13.672,8.301,3.906
1635969604.986,49.316,25.879,16.113,-0.488,28.320
1635969604.990,8.301,31.250,38.086,9.277,62.012
1635969604.994,-5.371,40.527,41.992,20.996,25.879
1635969604.988,21.973,43.457,34.180,22.949,62.012
1635969604.992,58.105,44.922,23.926,10.742,67.871
1635969604.996,20.508,44.434,35.156,15.137,51.758
1635969605.000,-12.207,44.922,41.016,13.184,55.664
1635969605.004,-6.348,45.898,31.250,3.906,47.363
1635969605.008,29.297,58.105,22.949,-0.488,57.129
1635969605.012,8.301,69.336,33.203,-10.742,51.758
1635969605.015,-36.621,75.195,50.293,-12.695,45.898
1635969605.019,-31.738,89.844,51.758,-12.695,39.062
1635969605.023,-12.695,93.750,51.758,-31.250,1.953
1635969605.027,-19.531,93.262,76.660,-53.711,-7.324
1635969605.031,-76.172,100.098,89.355,-71.777,30.273
1635969605.008,-98.145,109.375,95.215,-76.660,29.297
1635969605.012,-86.914,118.652,97.168,-84.961,2.441
1635969605.016,-88.867,127.441,91.797,-113.281,20.020
1635969605.020,-146.484,144.531,103.027,-129.395,35.156
1635969605.024,-196.777,146.973,108.887,-148.926,9.277
1635969605.028,-203.613,143.555,107.422,-182.617,7.812
1635969605.032,-177.246,146.484,106.934,-206.543,22.461
1635969605.035,-211.914,137.207,120.605,-212.891,23.926
1635969605.039,-237.793,122.559,129.395,-206.543,17.090
1635969605.043,-227.051,113.770,124.512,-208.496,6.836
1635969605.047,-187.988,115.723,119.629,-213.379,20.508
1635969605.051,-182.617,117.188,115.723,-198.730,17.090
1635969605.045,-223.633,104.004,116.699,-196.777,-11.230
1635969605.049,-225.098,92.285,109.375,-194.824,-2.930
1635969605.053,-161.621,83.984,101.562,-176.758,16.113
1635969605.057,-143.066,77.637,104.980,-182.129,17.578
1635969605.061,-183.105,74.219,116.699,-171.387,9.277
1635969605.065,-177.734,68.359,120.117,-148.438,-5.371
1635969605.069,-134.766,61.035,101.562,-140.625,3.906
1635969605.072,-93.262,59.570,90.820,-131.348,13.672
1635969605.076,-112.793,63.965,103.027,-105.469,-46.387
1635969605.080,-115.234,62.012,98.633,-80.566,-33.691
1635969605.084,-79.590,58.105,85.449,-69.336,44.434
1635969605.088,-15.625,52.246,74.707,-48.828,64.941
1635969605.082,-28.320,48.828,74.707,-37.109,32.227
1635969605.086,-52.734,48.828,77.637,-27.832,0.000
1635969605.090,-29.297,43.945,63.477,0.977,25.879
1635969605.094,21.484,30.273,41.992,9.766,55.176
1635969605.098,18.066,21.973,37.598,4.395,33.691
1635969605.102,-7.812,21.973,48.340,27.832,31.250
1635969605.106,19.531,22.461,43.457,51.270,33.691
1635969605.109,56.152,20.020,24.414,44.922,7.324
1635969605.113,82.520,13.672,11.230,55.664,19.531
1635969605.117,61.035,10.254,14.160,74.707,34.180
1635969605.121,54.688,7.324,18.066,73.242,32.227
1635969605.125,85.449,2.930,5.371,76.660,41.992
1635969605.125,123.047,-1.953,0.000,79.102,32.715
1635969605.129,90.820,-3.906,1.953,84.473,0.488
1635969605.133,77.148,-6.836,-1.953,101.074,-10.254
1635969605.137,104.980,-10.742,-10.742,109.863,29.297
1635969605.141,142.090,-16.113,-25.391,111.816,40.039
1635969605.145,122.559,-20.996,-15.625,118.164,39.551
1635969605.149,86.426,-14.648,-11.719,124.023,20.996
1635969605.152,107.422,-9.277,-20.508,130.371,9.277
1635969605.156,164.551,-16.602,-25.879,129.883,41.504
1635969605.160,163.574,-17.578,-26.367,123.535,55.664
1635969605.164,107.422,-15.625,-20.996,136.230,20.020
1635969605.168,100.586,-15.137,-25.879,139.160,5.859
1635969605.176,132.324,-13.672,-34.668,122.559,12.207
1635969605.180,153.809,-13.184,-30.273,118.164,-5.371
1635969605.184,122.070,-10.254,-17.578,124.512,16.113
1635969605.188,112.793,-10.742,-21.484,125.977,31.738
1635969605.192,133.789,-12.207,-37.109,122.559,29.297
1635969605.196,165.039,-10.254,-41.016,116.699,77.637
1635969605.200,142.578,-7.324,-27.344,115.723,43.945
1635969605.203,114.746,-5.859,-13.672,122.070,24.414
1635969605.207,113.770,-6.836,-11.230,128.906,60.059
1635969605.211,146.484,-9.277,-24.414,115.234,66.406
1635969605.215,137.695,-8.301,-16.602,113.281,77.148
1635969605.219,99.121,-3.906,-5.371,125.000,59.570
1635969605.212,102.051,-1.465,-8.301,121.582,1.465
1635969605.216,138.672,-4.883,-12.695,114.746,48.828
1635969605.220,143.066,-5.859,-10.742,108.887,93.262
1635969605.224,108.398,-3.418,0.977,110.352,10.742
1635969605.228,96.680,-4.883,6.348,110.840,20.020
1635969605.232,118.652,-4.883,-5.371,102.051,69.824
1635969605.236,147.461,-7.812,-14.648,100.098,76.172
1635969605.239,108.398,-8.301,-1.465,98.145,64.941
1635969605.243,88.379,-6.348,6.836,97.656,58.105
1635969605.247,110.840,-6.836,0.488,99.121,61.523
1635969605.251,145.996,-7.812,-8.301,86.914,47.363
1635969605.255,111.816,-3.906,-4.395,88.867,44.434
1635969605.250,79.590,0.977,-0.977,99.609,25.391
1635969605.254,88.867,-3.418,-4.395,93.262,13.672
1635969605.258,126.953,-8.301,-18.555,81.543,22.461
1635969605.262,115.723,-5.859,-11.719,87.402,19.531
1635969605.266,66.895,-2.930,1.953,89.844,28.320
1635969605.270,68.848,0.488,1.953,80.078,6.348
1635969605.274,98.145,-2.441,-7.812,65.430,29.785
1635969605.277,103.516,-0.488,-10.742,59.570,27.832
1635969605.281,59.082,5.371,3.418,71.289,9.277
1635969605.285,45.898,5.859,6.836,76.172,18.555
1635969605.289,74.219,11.230,6.348,64.453,26.367
1635969605.293,104.492,10.742,2.930,55.176,45.410
1635969605.306,68.848,8.301,6.348,65.430,11.719
1635969605.310,41.992,7.812,8.789,70.801,-7.324
1635969605.314,54.688,10.254,8.789,67.871,32.227
1635969605.318,93.262,13.184,11.719,57.129,48.340
1635969605.322,76.172,12.695,18.555,51.758,81.543
1635969605.326,40.039,11.719,17.578,53.711,58.594
1635969605.330,34.180,14.648,10.742,49.805,29.785
1635969605.333,62.012,15.137,4.883,41.016,41.016
1635969605.337,64.941,15.625,8.301,33.203,53.711
1635969605.341,17.090,14.648,9.766,39.062,63.965
1635969605.345,17.578,7.812,10.254,41.992,8.789
1635969605.349,61.523,7.324,13.184,40.039,-13.184
1635969605.345,73.242,8.789,14.160,37.109,8.789
1635969605.349,29.785,8.789,23.926,36.133,29.297
1635969605.353,17.090,9.277,25.879,38.086,38.086
1635969605.357,47.363,8.789,17.578,34.668,0.977
1635969605.361,78.125,8.301,8.789,29.297,-13.184
1635969605.365,43.945,13.184,18.066,39.551,5.859
1635969605.369,15.625,16.602,22.949,44.922,31.738
1635969605.372,26.855,17.578,9.766,37.598,44.434
1635969605.376,64.453,21.484,-3.418,30.273,42.969
1635969605.380,38.574,20.020,12.207,34.180,-22.949
1635969605.384,-7.324,14.648,27.344,33.203,-15.137
1635969605.388,4.883,14.648,22.461,33.691,44.434
1635969605.419,47.363,14.648,6.348,33.203,25.879
1635969605.423,48.340,15.137,7.324,31.250,14.648
1635969605.427,12.207,20.508,22.949,45.898,12.207
1635969605.431,22.949,20.508,22.949,50.293,-20.996
1635969605.435,57.129,23.926,10.742,24.902,4.883
1635969605.439,55.176,27.832,9.766,0.488,17.090
1635969605.443,7.324,31.738,16.113,16.113,6.348
1635969605.446,-4.883,37.109,14.648,18.555,17.090
1635969605.450,18.555,32.715,11.230,1.465,43.457
1635969605.454,52.734,26.367,7.812,0.000,77.148
1635969605.458,29.297,24.414,18.555,13.672,47.363
1635969605.462,-7.324,20.508,21.973,14.160,20.508
1635969605.438,3.906,23.438,25.391,12.695,42.969
1635969605.442,51.758,26.367,26.367,14.648,30.273
1635969605.446,40.527,23.926,30.273,13.672,21.484
1635969605.450,1.953,24.902,35.156,20.996,31.250
1635969605.454,9.277,29.785,32.227,25.879,-14.160
1635969605.458,41.504,29.785,23.926,22.949,-22.949
1635969605.462,43.457,26.367,21.484,19.531,4.395
1635969605.465,12.695,28.320,26.855,25.879,37.109
1635969605.469,6.348,28.320,24.414,31.738,50.293
1635969605.473,42.480,27.832,24.902,21.973,35.645
1635969605.477,66.406,30.273,32.227,4.883,30.273
1635969605.481,19.043,32.715,41.016,10.742,15.137
1635969605.494,9.277,34.180,38.574,31.250,40.527
1635969605.498,35.645,29.297,29.785,28.320,37.109
1635969605.502,63.477,29.297,26.855,19.531,19.531
1635969605.506,41.504,28.320,37.109,29.785,31.250
1635969605.510,14.160,24.902,38.574,41.992,43.945
1635969605.514,12.695,27.832,19.531,40.039,33.691
1635969605.518,51.758,22.949,1.953,35.156,56.641
1635969605.521,55.176,22.949,12.207,33.691,59.570
1635969605.525,16.113,26.855,19.531,31.738,41.992
1635969605.529,15.625,25.391,13.672,37.109,72.266
1635969605.533,47.852,24.414,7.324,33.203,28.320
1635969605.537,64.453,25.391,-1.465,24.414,35.645
1635969605.531,22.461,28.320,21.484,35.645,77.148
1635969605.535,1.953,27.832,38.086,34.180,15.625
1635969605.539,26.855,30.273,30.273,22.949,-7.812
1635969605.543,50.781,28.320,23.926,17.578,81.055
1635969605.547,17.090,20.996,33.691,26.855,20.508
1635969605.551,2.930,22.461,45.410,34.668,-20.020
1635969605.555,26.855,24.902,35.156,27.832,25.879
1635969605.558,65.918,24.414,23.926,18.066,51.270
1635969605.562,44.922,29.297,30.273,24.902,32.227
1635969605.566,13.184,29.785,34.180,31.250,-18.555
1635969605.570,18.066,25.879,31.738,26.367,13.672
1635969605.574,56.641,24.902,24.414,25.391,16.602
1635969605.588,70.801,28.809,25.879,35.645,64.453
1635969605.592,24.902,26.367,35.645,37.598,74.707
1635969605.596,12.207,24.902,31.250,32.227,56.152
1635969605.600,39.062,26.855,19.043,32.227,51.758
1635969605.604,43.457,23.438,24.902,30.762,23.926
1635969605.608,0.488,24.902,30.762,29.297,5.859
1635969605.612,-5.859,26.855,26.367,22.949,39.062
1635969605.615,23.438,25.879,20.996,17.578,58.594
1635969605.619,57.617,29.297,14.160,13.672,20.020
1635969605.623,32.227,30.762,26.367,21.484,-5.371
1635969605.627,5.859,26.855,36.133,29.297,-14.160
1635969605.631,17.090,24.902,25.879,21.973,24.902
1635969605.626,60.059,24.414,22.461,19.531,22.949
1635969605.630,43.457,21.973,25.879,22.949,-12.207
1635969605.634,0.000,25.879,34.668,21.484,17.578
1635969605.638,1.953,31.250,38.086,23.926,-1.465
1635969605.642,43.945,35.645,22.949,24.414,46.875
1635969605.646,43.945,41.504,24.902,23.438,102.539
1635969605.650,1.953,41.016,37.598,28.320,60.547
1635969605.653,0.000,37.109,34.668,31.250,31.738
1635969605.657,29.785,37.109,23.438,24.902,67.383
1635969605.661,57.617,37.598,20.508,25.879,62.500
1635969605.665,30.273,39.551,32.227,32.227,13.184
1635969605.669,13.184,41.016,34.180,28.809,38.574
1635969605.681,31.250,41.016,21.484,31.250,56.641
1635969605.685,64.453,37.109,10.254,25.391,66.406
1635969605.689,31.250,38.086,11.719,22.949,30.762
1635969605.693,1.953,41.016,14.648,29.297,7.324
1635969605.697,20.020,41.504,15.137,27.832,56.152
1635969605.701,77.148,34.180,6.836,42.969,65.918
1635969605.705,86.426,29.297,6.348,62.988,10.254
1635969605.708,23.926,32.227,19.043,51.270,-8.301
1635969605.712,-10.742,35.156,27.344,31.738,6.836
1635969605.716,20.020,36.621,21.973,20.996,63.965
1635969605.720,38.086,35.645,29.297,29.297,33.691
1635969605.724,-11.230,35.156,46.875,41.504,-29.785
1635969605.719,-20.508,31.250,53.223,30.273,7.812
1635969605.723,16.602,26.367,51.270,29.785,32.227
1635969605.727,39.551,20.020,51.758,31.738,29.785
1635969605.731,4.395,19.043,63.477,33.203,35.645
1635969605.735,-16.602,20.508,68.359,38.086,13.672
1635969605.739,-0.977,19.531,64.941,30.273,32.715
1635969605.743,40.039,12.207,47.852,25.879,32.227
1635969605.746,19.531,12.207,59.082,36.133,-12.207
1635969605.750,-10.254,19.531,74.219,36.621,34.180
1635969605.754,0.977,20.508,56.152,32.227,54.688
1635969605.758,40.039,20.020,42.969,27.344,23.438
1635969605.762,45.410,20.020,46.387,30.762,52.246
1635969605.775,5.371,23.926,55.664,45.898,30.762
1635969605.779,0.488,28.320,46.387,52.734,-21.484
1635969605.783,36.621,25.391,35.156,41.504,33.203
1635969605.787,52.734,24.414,42.480,33.203,78.613
1635969605.791,17.090,29.785,43.457,44.434,49.316
1635969605.795,9.766,33.691,36.133,53.711,3.418
1635969605.799,33.691,29.297,20.020,41.504,5.859
1635969605.802,67.383,22.461,11.719,25.879,-1.953
1635969605.806,38.574,27.344,31.738,33.691,-12.695
1635969605.810,5.371,31.738,39.551,37.598,3.418
1635969605.814,20.508,29.297,38.086,34.180,18.555
1635969605.818,62.012,28.320,27.832,26.855,-0.977
1635969605.813,52.246,32.715,40.527,29.297,1.953
1635969605.817,13.184,32.227,47.852,43.457,47.363
1635969605.821,11.230,29.785,36.133,37.109,25.391
1635969605.825,52.246,30.273,27.344,20.508,-5.371
1635969605.829,51.270,31.250,32.227,26.855,8.789
1635969605.833,6.348,27.832,43.945,41.016,49.805
1635969605.837,6.348,19.043,39.062,34.180,37.109
1635969605.840,45.898,15.137,39.551,26.367,26.855
1635969605.844,61.523,13.672,48.340,29.297,64.941
1635969605.848,16.602,16.602,49.805,41.016,47.363
1635969605.852,15.625,17.578,46.875,40.527,20.996
1635969605.856,31.738,18.555,38.086,31.738,63.965
1635969605.871,51.758,19.531,25.391,28.809,109.375
1635969605.875,34.668,20.996,26.855,38.086,73.242
1635969605.879,12.207,27.344,30.762,48.340,48.828
1635969605.883,28.809,28.320,29.297,41.504,57.617
1635969605.887,68.848,24.902,18.066,32.227,24.902
1635969605.891,55.664,25.879,30.273,34.180,12.695
1635969605.895,14.648,26.855,29.785,32.715,-7.324
1635969605.898,20.020,26.367,20.508,32.715,13.672
1635969605.902,55.176,24.414,30.273,38.574,39.062
1635969605.906,52.734,22.461,33.691,26.367,-9.277
1635969605.910,11.230,23.438,34.668,21.484,14.160
1635969605.914,12.695,24.902,25.391,31.738,52.734
1635969605.925,38.574,25.879,13.672,27.832,42.969
1635969605.929,57.617,24.414,20.020,23.926,63.965
1635969605.933,34.668,31.738,32.227,36.133,-1.465
1635969605.937,15.625,36.133,32.227,42.480,-48.828
1635969605.941,22.461,30.273,26.367,41.016,13.184
1635969605.945,62.500,29.785,11.230,32.715,35.156
1635969605.949,47.852,31.250,17.578,28.320,63.477
1635969605.952,11.230,27.832,27.832,35.156,47.363
1635969605.956,13.672,24.902,22.949,35.645,40.527
1635969605.960,47.852,25.879,13.672,19.531,41.016
1635969605.964,37.109,31.250,16.602,21.973,28.809
1635969605.968,0.488,35.156,24.902,34.180,28.809
1635969605.965,-0.488,30.273,21.973,18.066,18.555
1635969605.969,36.133,25.391,8.301,10.254,56.641
1635969605.973,52.246,26.855,6.836,10.742,45.898
1635969605.977,8.301,28.809,28.809,12.207,62.012
1635969605.981,-6.836,27.832,36.621,23.438,35.645
1635969605.985,26.855,27.344,23.438,29.297,30.273
1635969605.989,58.594,27.344,15.137,23.438,42.480
1635969605.992,28.809,30.273,34.668,25.879,25.879
1635969605.996,8.789,31.250,51.270,33.203,42.969
1635969606.000,24.414,23.926,42.969,32.227,5.371
1635969606.004,58.105,20.996,32.227,18.555,-2.930
1635969606.008,27.344,25.391,36.133,19.043,-4.883
1635969606.002,-10.254,25.391,41.504,25.879,-9.766
1635969606.006,1.953,22.949,43.945,24.414,11.230
1635969606.010,42.480,21.484,33.691,18.066,40.527
1635969606.014,40.527,27.832,31.250,17.578,16.602
1635969606.018,-8.301,25.391,43.457,19.531,8.301
1635969606.022,-8.789,13.672,44.922,27.832,25.879
1635969606.026,48.340,17.578,23.438,30.762,33.691
1635969606.029,49.316,28.809,19.531,4.395,78.613
1635969606.033,-6.348,33.203,28.809,-7.812,37.598
1635969606.037,-10.254,34.180,20.996,-0.488,-15.625
1635969606.041,15.137,33.691,10.254,-4.395,-8.301
1635969606.045,44.434,34.180,3.906,-12.695,25.879
1635969606.075,23.438,39.062,13.672,-2.930,48.340
1635969606.079,-2.441,40.527,20.020,0.000,35.645
1635969606.083,-4.883,39.062,15.137,-15.625,27.344
1635969606.087,41.992,40.527,13.672,-20.996,34.180
1635969606.091,32.715,43.945,14.160,-22.461,14.648
1635969606.095,-19.531,43.945,10.254,-23.438,0.977
1635969606.099,-15.625,41.016,2.441,-17.090,6.348
1635969606.102,35.645,45.410,-3.418,-13.672,34.180
1635969606.106,45.410,48.340,-2.930,-10.742,41.504
1635969606.110,4.883,41.504,6.348,3.906,3.906
1635969606.114,-6.348,35.645,8.301,1.953,0.977
1635969606.118,23.926,34.668,-7.324,-5.859,46.387
1635969606.096,49.316,32.715,-17.578,-2.441,53.711
1635969606.100,14.160,31.738,-5.859,9.766,21.484
1635969606.104,-3.906,33.691,11.719,14.648,42.969
1635969606.108,19.043,34.180,8.301,9.277,75.195
1635969606.112,54.688,28.320,-2.930,-0.488,36.133
1635969606.116,25.391,27.832,3.906,8.789,17.090
1635969606.120,-2.930,33.691,15.137,19.043,61.035
1635969606.123,15.137,31.738,10.742,16.113,31.738
1635969606.127,57.617,28.809,-0.488,6.836,13.184
1635969606.131,40.039,33.203,12.695,6.348,22.461
1635969606.135,3.418,34.180,33.203,20.996,20.020
1635969606.139,19.531,33.203,29.785,18.066,50.293
1635969606.150,60.547,35.645,20.508,7.324,45.898
1635969606.154,55.176,32.715,16.602,9.277,31.250
1635969606.158,11.230,28.809,13.184,13.672,2.930
1635969606.162,7.324,24.902,23.926,13.184,-35.156
1635969606.166,37.598,21.484,20.020,16.602,23.438
1635969606.170,64.941,22.461,8.301,13.672,54.199
1635969606.174,25.879,24.414,11.230,20.508,33.203
1635969606.177,14.648,28.809,17.578,26.855,30.762
1635969606.181,42.969,26.367,16.113,23.438,0.000
1635969606.185,72.754,17.578,5.859,25.391,24.902
1635969606.189,43.457,17.578,14.648,28.809,46.387
1635969606.193,11.230,23.926,6.836,30.273,-35.645
1635969606.188,21.484,24.902,0.977,22.461,-3.906
1635969606.192,60.059,20.996,5.371,16.602,82.520
1635969606.196,47.363,25.391,8.301,16.602,58.594
1635969606.200,3.418,29.297,21.973,22.461,13.672
1635969606.204,10.254,23.926,18.555,29.785,54.688
1635969606.208,45.410,18.066,10.254,28.320,55.664
1635969606.212,55.176,18.066,22.461,31.738,0.977
1635969606.215,15.625,23.926,36.621,40.527,6.348
1635969606.219,5.371,24.414,27.344,37.598,37.598
1635969606.223,29.297,21.484,13.184,31.250,62.988
1635969606.227,58.105,21.484,7.812,23.438,47.363
1635969606.231,23.438,26.367,19.043,23.438,7.324
1635969606.263,6.348,26.855,33.203,23.926,26.367
1635969606.267,16.602,20.996,27.832,26.367,37.598
1635969606.271,51.270,23.438,17.578,21.484,37.598
1635969606.275,38.086,26.855,24.902,17.090,16.602
1635969606.279,0.488,25.879,21.973,25.391,8.789
1635969606.283,6.348,26.367,20.996,32.715,20.020
1635969606.287,40.039,24.902,24.902,25.879,61.523
1635969606.290,39.062,24.902,35.156,17.090,41.992
1635969606.294,-2.930,23.926,38.574,26.367,21.484
1635969606.298,-5.371,21.973,31.738,25.391,52.734
1635969606.302,29.785,20.996,28.809,16.602,64.941
1635969606.306,37.109,19.531,20.996,8.789,65.918
1635969606.283,-6.836,25.391,25.879,14.160,9.277
1635969606.287,-12.207,26.855,28.320,22.461,7.812
1635969606.291,13.672,22.461,17.578,20.996,22.949
1635969606.295,44.434,26.855,12.695,22.949,33.203
1635969606.299,22.949,29.785,25.879,28.320,8.789
1635969606.303,-3.418,27.344,38.086,22.949,24.902
1635969606.307,16.113,25.391,43.457,20.508,76.172
1635969606.310,55.176,21.484,32.227,16.602,71.289
1635969606.314,31.738,19.531,27.344,18.066,59.570
1635969606.318,-3.418,23.926,34.180,24.414,14.648
1635969606.322,3.906,26.855,32.227,23.438,54.688
1635969606.326,41.504,26.367,23.438,19.043,58.105
1635969606.337,48.828,26.855,22.949,19.043,-16.602
1635969606.341,9.766,25.391,29.297,27.344,27.344
1635969606.345,0.000,21.973,33.691,25.879,22.461
1635969606.349,24.902,21.973,27.832,19.531,0.977
1635969606.353,54.199,20.020,14.160,17.090,50.293
1635969606.357,21.973,20.508,15.137,20.996,38.086
1635969606.361,-1.465,24.414,12.695,34.668,-21.484
1635969606.364,26.367,28.809,6.836,41.504,-12.207
1635969606.368,67.383,34.180,12.207,14.648,2.930
1635969606.372,41.016,31.738,30.762,13.184,-1.465
1635969606.376,15.625,28.320,29.297,32.227,-31.250
1635969606.380,19.043,28.320,3.418,22.461,-15.137
1635969606.375,52.734,28.809,2.441,13.184,9.766
1635969606.379,50.781,34.668,17.090,27.344,30.273
1635969606.383,9.277,34.668,22.949,32.715,43.945
1635969606.387,15.625,28.809,24.902,22.949,-4.395
1635969606.391,61.035,27.344,18.555,19.043,18.555
1635969606.395,63.477,29.785,21.484,18.555,63.965
1635969606.399,6.348,27.344,24.902,25.879,5.859
1635969606.402,2.930,27.832,22.949,39.551,7.812
1635969606.406,40.039,27.344,15.625,40.527,33.691
1635969606.410,60.059,21.973,11.719,29.785,41.016
1635969606.414,27.832,28.809,24.902,27.344,31.738
1635969606.418,10.254,33.203,22.461,25.391,29.785
1635969606.432,28.809,30.762,21.973,28.809,17.090
1635969606.436,68.848,31.738,22.949,30.273,81.055
1635969606.440,45.410,35.156,33.203,29.785,89.355
1635969606.444,15.137,35.645,43.457,32.715,37.109
1635969606.448,23.926,31.738,30.762,31.738,26.855
1635969606.452,62.500,28.320,9.277,26.367,9.277
1635969606.456,55.176,31.250,11.719,29.297,8.789
1635969606.459,8.789,33.691,28.320,33.203,15.137
1635969606.463,17.090,28.809,28.809,34.180,-18.555
1635969606.467,53.223,26.367,13.672,29.785,32.715
1635969606.471,63.477,26.367,17.578,21.973,73.242
1635969606.475,19.531,20.508,36.621,38.574,17.578
1635969606.469,1.953,15.137,37.598,46.387,37.598
1635969606.473,34.180,20.508,29.297,32.227,36.621
1635969606.477,56.641,23.926,23.926,15.625,41.504
1635969606.481,20.508,25.391,33.691,15.137,69.824
1635969606.485,13.672,30.273,33.691,32.227,31.738
1635969606.489,20.020,31.250,29.297,33.203,25.391
1635969606.493,47.363,31.738,22.949,24.902,36.621
1635969606.496,30.273,35.156,30.762,25.879,-11.719
1635969606.500,0.488,33.203,40.039,28.320,18.555
1635969606.504,12.207,27.832,34.180,30.273,29.297
1635969606.508,53.711,25.879,26.367,18.066,5.859
1635969606.512,54.688,24.902,30.762,14.160,24.414
1635969606.525,6.348,26.367,40.527,22.949,29.297
1635969606.529,13.184,26.855,26.367,27.832,44.434
1635969606.533,51.270,27.832,12.207,24.414,44.434
1635969606.537,57.617,27.344,20.020,17.090,15.137
1635969606.541,11.230,24.414,31.250,14.160,20.996
1635969606.545,0.488,26.855,36.621,12.695,69.336
1635969606.549,26.855,25.879,30.273,14.160,20.020
1635969606.552,62.012,21.484,24.414,5.859,-9.766
1635969606.556,33.203,24.414,36.621,17.090,31.738
1635969606.560,5.859,26.367,41.504,25.391,27.344
1635969606.564,10.742,26.855,36.133,22.949,49.316
1635969606.568,40.527,26.367,25.879,14.648,41.016
1635969606.564,33.691,27.832,25.391,14.648,38.086
1635969606.568,6.836,30.273,28.809,28.320,62.012
1635969606.572,17.578,28.320,21.484,28.809,18.555
1635969606.576,57.129,26.855,13.672,19.043,32.715
1635969606.580,60.059,23.926,20.508,21.484,63.965
1635969606.584,17.090,24.414,31.738,36.621,-7.812
1635969606.588,12.207,27.344,33.203,38.086,-8.789
1635969606.591,42.969,24.414,25.391,31.250,68.359
1635969606.595,62.012,23.926,20.020,29.785,46.875
1635969606.599,16.113,27.832,36.133,35.156,-3.418
1635969606.603,-1.465,28.320,46.875,38.086,3.418
1635969606.607,12.207,24.902,37.598,40.527,46.875
1635969606.619,40.039,21.973,26.367,24.902,39.551
1635969606.623,22.949,22.949,32.227,17.578,29.785
1635969606.627,-9.766,25.879,29.785,27.344,57.129
1635969606.631,-2.441,30.762,21.484,24.902,14.160
1635969606.635,46.875,32.715,20.508,20.508,45.898
1635969606.639,41.992,30.762,30.273,27.344,53.711
1635969606.643,-4.395,26.367,41.504,26.367,42.969
1635969606.646,-1.465,25.391,42.480,26.367,47.852
1635969606.650,38.086,27.344,36.133,22.949,11.230
1635969606.654,46.875,32.227,38.086,16.113,32.227
1635969606.658,11.230,33.691,51.758,24.414,49.316
1635969606.662,-7.812,31.250,45.898,26.855,52.734
1635969606.657,15.625,32.227,35.645,19.043,55.176
1635969606.661,43.457,29.785,29.785,17.090,67.383
1635969606.665,9.766,26.855,34.180,37.109,37.109
1635969606.669,-2.441,28.809,42.969,42.969,2.930
1635969606.673,21.973,26.367,37.109,28.809,61.035
1635969606.677,50.293,24.902,28.320,19.531,16.602
1635969606.681,33.691,27.832,39.062,20.996,-16.602
1635969606.684,9.766,29.785,46.387,26.855,-15.625
1635969606.688,6.348,32.227,39.551,30.762,8.789
1635969606.692,41.992,38.574,18.066,25.879,59.570
1635969606.696,47.363,37.598,22.461,20.996,52.734
1635969606.700,12.207,32.227,39.551,33.691,41.992
1635969606.712,12.207,34.668,29.785,38.086,7.324
1635969606.716,37.598,35.156,15.625,25.879,28.320
1635969606.720,48.340,32.715,13.672,23.438,34.668
1635969606.724,12.695,32.715,21.484,29.297,-6.836
1635969606.728,9.766,33.691,24.902,25.879,9.277
1635969606.732,38.086,34.180,26.367,28.809,39.551
1635969606.736,50.781,31.250,23.438,21.484,27.344
1635969606.739,16.113,29.785,37.109,16.602,26.855
1635969606.743,-2.441,28.809,43.457,20.996,30.273
1635969606.747,12.207,28.320,28.809,21.973,18.555
1635969606.751,48.828,28.809,19.531,20.020,22.949
1635969606.755,33.203,30.273,30.273,24.902,26.367
1635969606.769,8.789,32.227,38.086,35.156,-8.301
1635969606.773,19.043,33.691,31.250,37.109,8.301
1635969606.777,55.664,30.273,28.809,25.391,18.555
1635969606.781,52.734,27.832,41.504,20.996,-23.438
1635969606.785,6.836,28.809,52.734,38.086,10.742
1635969606.789,4.395,26.855,45.410,33.203,29.297
1635969606.793,39.062,26.855,34.668,17.578,32.715
1635969606.796,65.918,27.344,32.227,16.113,5.859
1635969606.800,23.926,29.785,38.574,19.043,-6.348
1635969606.804,0.977,30.762,37.598,20.996,24.414
1635969606.808,30.762,27.344,30.762,22.949,28.320
1635969606.812,66.406,22.949,26.855,16.602,41.504
1635969606.807,43.457,26.367,37.598,21.973,51.270
1635969606.811,1.953,27.832,37.109,37.109,4.395
1635969606.815,1.953,23.438,27.832,36.133,-21.484
1635969606.819,51.758,24.414,28.320,23.926,26.367
1635969606.823,46.875,25.879,29.785,23.926,6.836
1635969606.827,6.348,29.297,34.668,29.785,0.488
1635969606.831,4.883,30.762,43.945,32.715,23.438
1635969606.834,49.805,27.832,43.457,24.414,41.016
1635969606.838,51.758,28.809,47.852,25.879,53.223
1635969606.842,1.953,31.250,56.152,39.551,36.133
1635969606.846,-1.953,29.785,53.223,35.156,10.254
1635969606.850,29.297,27.344,39.551,19.531,40.039
1635969606.863,54.199,27.832,36.133,8.301,57.129
1635969606.867,17.578,30.273,49.805,16.113,63.965
1635969606.871,-4.395,29.297,44.922,27.344,62.012
1635969606.875,17.578,24.414,28.809,18.066,17.090
1635969606.879,46.875,21.973,18.555,1.465,-12.207
1635969606.883,20.020,27.344,28.809,5.371,15.625
1635969606.887,-3.906,29.297,39.551,18.555,-1.465
1635969606.890,8.301,28.320,40.527,23.438,-10.254
1635969606.894,51.758,25.879,24.414,21.484,0.000
1635969606.898,45.410,25.879,27.832,23.438,52.246
1635969606.902,0.000,31.738,53.711,23.926,92.285
1635969606.906,5.859,30.273,43.945,22.949,41.992
1635969606.919,42.480,26.367,24.902,17.090,38.086
1635969606.923,42.480,22.461,25.391,2.441,61.523
1635969606.927,16.602,20.996,33.691,12.207,68.359
1635969606.931,17.578,24.902,29.785,41.016,26.367
1635969606.935,23.926,27.832,17.090,30.273,7.812
1635969606.939,50.781,25.391,17.578,-2.930,20.508
1635969606.943,8.789,21.973,28.809,3.906,24.414
1635969606.946,-18.066,24.414,35.645,19.531,47.852
1635969606.950,13.184,27.344,31.738,23.438,47.363
1635969606.954,61.035,23.926,22.461,20.508,32.715
1635969606.958,34.668,23.926,20.508,30.273,30.273
1635969606.962,-6.836,26.367,11.719,41.504,41.016
1635969606.975,11.719,25.879,16.113,36.621,0.977
1635969606.979,58.105,30.273,25.391,35.156,7.324
1635969606.983,55.176,36.621,32.715,36.621,65.918
1635969606.987,2.930,34.180,41.504,32.227,52.246
1635969606.991,0.488,33.691,37.598,33.203,11.230
1635969606.995,41.504,33.203,29.297,39.062,-1.953
1635969606.999,62.988,27.832,27.832,32.227,-9.277
1635969607.002,22.949,27.344,36.133,29.785,-18.555
1635969607.006,2.930,28.320,39.062,33.691,12.207
1635969607.010,24.902,30.273,25.391,35.156,7.812
1635969607.014,64.453,35.156,25.879,32.715,20.020
1635969607.018,34.668,37.109,38.574,33.203,9.277
1635969606.996,9.766,34.668,27.344,36.133,19.043
1635969607.000,24.902,32.227,14.648,36.621,41.016
1635969607.004,66.406,31.250,8.301,33.203,45.410
1635969607.008,54.199,33.691,18.555,37.598,3.418
1635969607.012,10.742,36.133,27.344,41.504,-7.324
1635969607.016,12.695,37.109,15.137,39.551,12.695
1635969607.020,45.410,35.156,3.906,31.250,9.277
1635969607.023,53.711,36.133,14.160,28.809,43.457
1635969607.027,21.484,34.668,29.297,34.668,59.082
1635969607.031,14.160,34.180,23.926,43.457,21.973
1635969607.035,47.363,36.621,18.066,35.645,-17.578
1635969607.039,65.918,35.645,17.090,19.531,27.832
1635969607.034,24.902,35.156,25.391,27.344,19.531
1635969607.038,8.789,36.621,28.320,32.715,22.949
1635969607.042,29.297,35.645,14.648,24.414,51.270
1635969607.046,72.266,36.133,1.953,20.508,30.273
1635969607.050,41.016,35.645,6.348,30.273,18.066
1635969607.054,-2.441,32.227,16.113,30.273,16.602
1635969607.058,15.137,28.809,22.949,27.344,52.246
1635969607.061,59.082,24.902,18.555,22.949,72.266
1635969607.065,45.410,21.484,13.672,21.973,8.789
1635969607.069,8.789,23.438,19.531,25.879,-2.441
1635969607.073,8.789,27.832,31.738,22.461,40.527
1635969607.077,47.363,31.738,24.902,20.996,10.254
1635969607.089,62.012,38.574,18.555,22.461,29.297
1635969607.093,17.090,36.621,31.738,32.715,85.938
1635969607.097,10.742,30.762,23.438,33.203,50.293
1635969607.101,48.340,27.344,12.207,22.949,44.922
1635969607.105,74.707,23.438,18.066,21.484,53.223
1635969607.109,36.621,27.344,31.250,26.855,36.621
1635969607.113,12.207,27.344,38.086,22.461,32.227
1635969607.116,33.691,25.391,35.645,16.113,85.449
1635969607.120,71.289,25.391,26.855,13.672,65.918
1635969607.124,47.363,23.926,28.809,15.625,31.250
1635969607.128,5.859,20.508,31.250,18.066,51.758
1635969607.132,6.836,15.625,13.184,16.113,0.488
1635969607.125,51.270,13.672,6.348,9.277,-14.160
1635969607.129,41.992,13.672,25.391,14.160,23.438
1635969607.133,-9.277,16.113,32.227,20.508,32.715
1635969607.137,-7.324,20.020,24.414,16.602,46.875
1635969607.141,38.086,17.578,9.277,16.602,74.707
1635969607.145,56.152,17.090,7.324,17.578,13.184
1635969607.149,19.531,16.113,35.645,20.996,8.789
1635969607.152,13.184,13.672,42.480,29.297,19.043
1635969607.156,40.527,14.160,30.273,28.809,38.574
1635969607.160,67.383,13.184,25.391,8.789,47.852
1635969607.164,23.926,19.043,38.086,9.277,4.883
1635969607.168,1.953,25.391,41.504,24.414,-11.719
1635969607.182,21.973,22.461,29.785,18.555,33.203
1635969607.186,48.828,18.555,22.949,2.441,37.109
1635969607.190,28.809,23.438,38.086,9.277,17.090
1635969607.194,-5.371,25.879,46.387,21.973,3.418
1635969607.198,0.488,20.508,39.062,19.043,19.531
1635969607.202,41.016,21.484,30.762,13.672,73.242
1635969607.206,39.062,29.785,29.785,11.230,85.449
1635969607.209,4.883,32.715,37.109,26.367,57.617
1635969607.213,10.254,27.832,42.480,34.668,15.625
1635969607.217,43.945,26.855,30.273,22.461,-8.301
1635969607.221,61.523,27.344,25.391,19.043,20.508
1635969607.225,20.508,25.391,33.203,27.344,16.113
1635969607.219,-1.465,24.414,34.180,33.691,6.836
1635969607.223,17.578,25.391,33.691,32.227,28.809
1635969607.227,54.199,28.809,27.344,19.043,38.574
1635969607.231,24.902,29.785,32.715,18.555,38.086
1635969607.235,-5.371,25.391,36.621,21.484,10.254
1635969607.239,4.395,23.438,32.715,20.508,32.715
1635969607.243,43.457,24.902,20.508,14.648,67.383
1635969607.246,27.832,25.879,28.809,10.742,67.871
1635969607.250,-10.742,26.855,32.227,19.531,44.434
1635969607.254,3.418,27.344,16.113,21.973,7.812
