timestamps,TP9,AF7,AF8,TP10,Right AUX
1643749544.010,7.324,23.926,27.832,16.113,74.707
1643749544.014,10.742,21.973,29.297,5.859,-18.555
1643749544.018,18.555,21.973,30.762,20.996,-32.227
1643749544.022,17.578,26.367,29.297,37.109,65.430
1643749544.026,28.809,27.344,28.320,33.203,80.566
1643749544.030,39.062,26.367,29.297,26.367,8.789
1643749544.034,32.227,30.762,27.344,27.344,5.859
1643749544.037,34.180,30.273,28.809,37.109,19.531
1643749544.041,32.227,27.832,26.855,38.086,51.270
1643749544.045,34.668,29.785,24.902,29.297,25.391
1643749544.049,38.574,28.809,26.367,29.785,-40.527
1643749544.053,27.832,27.832,26.855,38.086,-2.441
1643749544.055,28.809,28.809,27.832,44.922,77.637
1643749544.059,41.504,28.809,28.320,37.598,48.340
1643749544.063,39.551,30.273,28.320,30.273,-27.832
1643749544.067,40.527,31.250,29.297,36.133,-0.977
1643749544.071,40.039,28.809,31.250,42.969,58.105
1643749544.075,38.086,31.250,30.762,40.039,57.129
1643749544.079,40.527,34.668,32.715,27.832,20.020
1643749544.082,34.180,36.133,33.691,18.066,-31.738
1643749544.086,29.785,34.180,26.855,26.855,2.930
1643749544.090,34.180,33.691,24.902,37.598,20.996
1643749544.094,32.227,35.645,25.879,24.414,-4.883
1643749544.098,23.926,33.203,27.344,18.066,5.371
1643749544.100,17.090,29.785,25.391,27.344,22.949
1643749544.104,14.648,30.762,24.902,33.203,45.410
1643749544.108,20.508,30.762,29.785,29.785,20.996
1643749544.112,23.438,32.227,30.273,20.020,-47.363
1643749544.116,22.461,32.715,26.855,26.855,-26.855
1643749544.120,20.996,30.273,27.832,34.180,-1.465
1643749544.124,22.949,31.250,29.297,24.414,-20.020
1643749544.127,22.949,30.762,29.297,16.113,-52.246
1643749544.131,24.902,30.762,29.297,28.320,-44.922
1643749544.135,21.973,36.133,27.832,37.598,25.879
1643749544.139,18.555,37.598,25.879,26.367,70.801
1643749544.143,20.020,35.156,25.391,14.160,-14.160
1643749544.146,13.672,35.645,27.344,15.137,-84.961
1643749544.150,0.488,36.133,29.297,12.695,23.926
1643749544.154,7.812,35.645,31.738,10.254,77.148
1643749544.158,11.719,33.203,29.297,6.836,24.414
1643749544.162,18.066,30.762,26.367,12.695,22.949
1643749544.166,23.438,31.738,26.367,31.738,31.738
1643749544.170,24.414,30.273,25.391,33.203,25.391
1643749544.173,33.691,29.785,27.344,14.160,11.230
1643749544.177,23.926,30.273,27.344,8.789,-33.203
1643749544.181,20.020,30.273,27.344,28.320,-22.949
1643749544.185,34.668,28.320,30.273,31.250,43.945
1643749544.189,32.715,29.297,27.832,22.461,50.293
1643749544.205,31.738,31.738,26.855,14.648,57.617
1643749544.209,36.621,31.250,27.832,18.555,51.758
1643749544.213,38.574,30.762,31.250,38.086,19.043
1643749544.217,37.109,31.738,35.156,43.945,21.973
1643749544.221,20.996,33.691,32.227,34.668,16.113
1643749544.225,7.812,32.715,33.691,32.715,-1.953
1643749544.229,7.812,29.297,34.668,37.109,-11.719
1643749544.232,-5.859,28.809,32.227,35.645,20.996
1643749544.236,-16.602,30.762,29.785,20.020,39.551
1643749544.240,0.488,28.809,34.180,11.719,21.484
1643749544.244,0.488,27.832,35.156,22.461,30.762
1643749544.248,-2.930,27.832,32.227,27.832,61.035
1643749544.250,8.789,27.832,32.227,20.508,38.574
1643749544.254,12.695,27.832,32.227,15.625,10.742
1643749544.258,9.766,27.832,30.273,12.207,18.066
1643749544.262,9.277,28.809,27.344,13.184,23.926
1643749544.266,8.789,26.367,28.809,11.719,28.809
1643749544.270,14.648,25.391,28.809,7.812,0.488
1643749544.274,5.859,28.809,23.438,0.488,0.000
1643749544.277,7.324,27.832,24.902,12.695,11.719
1643749544.281,21.973,26.367,29.297,20.996,-8.789
1643749544.285,21.484,26.367,29.297,5.371,-5.371
1643749544.289,21.484,24.902,24.902,8.789,-3.418
1643749544.293,20.996,23.926,23.438,21.484,26.367
1643749544.294,18.555,24.414,26.367,26.855,82.031
1643749544.298,20.996,24.414,28.320,20.996,53.223
1643749544.302,17.578,24.902,29.297,12.207,-0.488
1643749544.306,20.508,24.414,29.297,23.926,18.066
1643749544.310,32.227,24.414,29.297,33.691,89.355
1643749544.314,31.738,26.367,29.297,21.973,45.898
1643749544.318,26.367,27.832,27.832,16.113,17.090
1643749544.321,25.879,30.762,25.879,22.461,51.270
1643749544.325,23.438,33.691,27.344,32.227,47.363
1643749544.329,26.855,30.762,32.715,29.785,33.691
1643749544.333,31.250,28.320,34.668,25.391,44.922
1643749544.337,22.949,32.227,32.227,26.855,25.391
1643749544.339,25.391,30.273,33.203,32.715,43.945
1643749544.343,34.180,30.273,34.668,36.133,46.875
1643749544.347,40.527,31.250,32.715,25.391,24.902
1643749544.351,35.645,31.738,32.227,18.555,30.762
1643749544.355,27.832,30.762,30.762,22.461,23.926
1643749544.359,27.344,25.879,29.785,25.391,64.941
1643749544.363,20.020,27.832,28.320,17.578,9.766
1643749544.366,18.066,32.227,26.367,15.137,-12.207
1643749544.370,29.297,31.250,28.320,30.762,40.527
1643749544.374,37.598,33.203,27.344,43.945,74.707
1643749544.378,36.621,33.203,27.344,36.133,38.574
1643749544.382,35.156,30.273,27.832,31.250,-25.391
1643749544.384,32.715,30.762,24.414,33.691,9.766
1643749544.388,33.203,32.715,25.879,37.109,56.641
1643749544.392,35.645,34.180,26.855,32.227,14.648
1643749544.396,32.227,34.668,22.949,19.531,-10.254
1643749544.400,30.762,33.203,23.926,20.996,-26.367
1643749544.404,27.344,33.203,24.902,25.391,18.555
1643749544.408,19.531,31.250,26.367,23.438,51.758
1643749544.411,17.090,31.738,29.785,11.230,-0.488
1643749544.415,20.508,31.738,29.297,10.742,9.766
1643749544.419,25.879,26.367,29.297,26.367,-0.977
1643749544.423,29.785,23.926,31.738,41.504,33.691
1643749544.427,24.414,26.855,30.762,35.156,57.129
1643749544.431,20.996,24.414,29.785,22.949,41.504
1643749544.435,21.484,21.973,29.297,21.484,47.852
1643749544.439,21.484,24.414,27.832,24.902,51.758
1643749544.443,21.973,24.414,27.832,30.762,36.133
1643749544.447,11.230,24.414,29.297,17.090,10.742
1643749544.451,10.254,24.902,29.785,5.371,18.555
1643749544.455,17.578,26.855,27.344,1.465,29.785
1643749544.458,10.742,27.344,27.344,-2.441,40.039
1643749544.462,18.066,28.320,29.297,-1.465,2.441
1643749544.466,16.602,29.297,31.250,10.254,-23.438
1643749544.470,9.277,29.297,32.227,23.438,8.789
1643749544.474,23.926,31.250,32.227,29.297,18.066
1643749544.475,27.344,32.715,31.250,14.160,0.488
1643749544.479,20.996,31.250,32.715,5.859,15.137
1643749544.483,17.578,32.227,34.180,17.578,25.391
1643749544.487,27.832,34.180,32.715,28.809,87.402
1643749544.491,29.297,35.156,34.180,28.320,60.059
1643749544.495,16.602,34.180,34.180,21.973,-17.578
1643749544.499,10.742,33.691,32.227,27.832,30.762
1643749544.502,8.301,34.180,33.203,28.809,68.359
1643749544.506,7.812,34.668,31.738,27.344,49.316
1643749544.510,11.230,37.109,31.250,24.414,26.367
1643749544.514,22.949,38.574,32.715,25.391,8.301
1643749544.518,28.809,37.598,35.156,38.086,33.203
1643749544.535,28.320,34.668,36.621,36.621,61.035
1643749544.539,21.973,35.645,36.133,25.879,46.875
1643749544.543,22.461,35.645,37.109,22.949,24.902
1643749544.547,30.762,30.762,37.598,29.785,48.828
1643749544.551,24.414,29.785,33.691,40.527,50.781
1643749544.555,18.555,33.203,30.762,26.855,35.645
1643749544.559,17.090,34.668,32.227,6.836,46.875
1643749544.562,13.672,32.715,29.297,13.184,19.043
1643749544.566,14.648,30.273,27.344,30.273,71.777
1643749544.570,10.254,28.809,29.785,33.203,112.305
1643749544.574,8.789,27.832,30.762,35.156,58.105
1643749544.578,7.324,26.367,30.273,31.738,34.180
1643749544.580,11.719,26.855,29.297,25.391,64.941
1643749544.584,17.090,28.809,29.297,17.090,80.078
1643749544.588,8.789,25.391,29.297,7.812,21.973
1643749544.592,6.348,25.879,25.391,4.883,6.348
1643749544.596,10.742,27.344,25.391,10.254,61.035
1643749544.600,14.648,25.879,26.367,15.137,60.547
1643749544.604,17.578,28.320,25.391,11.230,17.578
1643749544.607,17.578,28.809,26.367,11.719,0.977
1643749544.611,22.949,25.879,29.297,21.973,49.805
1643749544.615,25.391,28.809,28.809,29.297,86.426
1643749544.619,13.672,32.227,25.391,18.555,41.504
1643749544.623,13.672,30.762,25.391,16.113,7.812
1643749544.625,20.020,29.297,28.809,22.949,41.504
1643749544.629,19.043,27.832,29.785,26.367,85.938
1643749544.633,16.602,27.832,26.855,27.344,76.660
1643749544.637,17.578,28.320,27.344,20.508,7.812
1643749544.641,22.949,28.809,28.320,25.391,-24.414
1643749544.645,31.738,30.762,28.809,42.480,37.109
1643749544.649,34.180,27.832,27.344,35.156,87.891
1643749544.652,29.785,25.391,27.344,13.672,40.039
1643749544.656,28.320,28.320,28.320,14.160,-27.832
1643749544.660,30.762,28.320,27.832,26.855,-11.230
1643749544.664,34.180,26.855,28.809,30.762,50.293
1643749544.668,31.738,24.902,30.762,16.602,21.484
1643749544.670,30.762,24.414,30.762,12.695,-5.371
1643749544.674,21.484,25.879,32.227,27.832,36.133
1643749544.678,20.508,26.367,35.645,33.203,52.246
1643749544.682,30.762,25.391,33.203,30.762,4.395
1643749544.686,31.738,26.367,30.273,28.320,-51.758
1643749544.690,41.504,25.879,30.273,28.809,-43.457
1643749544.694,46.387,24.414,29.297,38.086,50.781
1643749544.697,33.203,23.926,27.344,33.691,75.684
1643749544.701,30.762,24.414,29.785,23.926,-21.484
1643749544.705,31.250,24.902,27.832,24.414,-50.781
1643749544.709,30.273,26.367,25.391,34.180,29.297
1643749544.713,34.180,29.297,28.809,42.480,65.430
1643749544.715,25.391,30.762,31.738,29.785,62.988
1643749544.719,23.438,30.762,29.297,17.090,20.020
1643749544.723,28.320,29.297,29.297,22.461,52.246
1643749544.727,18.066,27.344,31.738,24.414,83.008
1643749544.731,18.066,26.367,30.762,20.508,9.766
1643749544.735,20.508,25.879,31.738,17.090,-22.949
1643749544.739,18.555,24.414,31.250,27.832,8.301
1643749544.742,22.949,26.855,29.785,36.133,58.594
1643749544.746,32.227,29.297,33.203,27.832,24.414
1643749544.750,33.203,28.809,33.691,20.508,-17.578
1643749544.754,29.785,30.273,32.715,27.344,8.789
1643749544.758,23.438,33.203,33.691,36.621,55.664
1643749544.760,19.043,27.832,34.180,26.367,60.059
1643749544.764,22.949,26.855,34.668,12.207,6.836
1643749544.768,26.855,32.227,34.668,20.020,-14.648
1643749544.772,20.020,32.715,30.762,29.785,33.203
1643749544.776,12.695,33.691,28.320,23.438,64.453
1643749544.780,12.207,34.668,28.320,13.672,1.465
1643749544.784,17.578,36.621,26.855,14.160,-20.508
1643749544.787,22.461,38.574,27.344,24.414,9.766
1643749544.791,20.996,37.109,27.832,30.273,32.715
1643749544.795,16.113,36.133,26.367,22.461,42.969
1643749544.799,19.531,35.156,26.855,17.090,28.809
1643749544.803,32.715,33.691,26.367,26.367,35.645
1643749544.805,29.785,31.738,26.367,31.250,68.359
1643749544.809,17.090,28.320,26.855,21.484,49.805
1643749544.813,17.578,29.297,27.832,23.926,-28.809
1643749544.817,20.020,32.715,28.809,35.156,-11.230
1643749544.821,19.043,31.738,24.902,34.180,37.109
1643749544.825,21.484,35.645,23.438,33.203,0.977
1643749544.829,26.855,36.133,27.344,20.020,-19.043
1643749544.832,23.926,33.203,29.785,13.672,-33.203
1643749544.836,20.996,33.691,28.809,26.855,-0.488
1643749544.840,26.855,32.715,28.809,28.809,65.430
1643749544.844,24.902,36.621,30.273,16.113,10.742
1643749544.848,21.973,36.133,31.250,11.230,-55.664
1643749544.850,23.926,32.227,30.762,22.461,-37.109
1643749544.854,11.719,33.691,29.297,28.320,42.969
1643749544.858,8.789,34.668,29.785,19.043,47.852
1643749544.862,22.461,32.715,33.203,12.695,55.664
1643749544.866,25.879,32.715,31.738,23.926,62.012
1643749544.870,14.648,33.203,30.762,32.715,36.621
1643749544.874,15.625,32.227,30.762,28.320,41.992
1643749544.877,22.461,30.762,28.320,19.531,-0.488
1643749544.881,16.602,29.785,26.367,22.949,0.977
1643749544.885,15.625,29.297,26.367,30.273,17.090
1643749544.889,22.949,29.297,28.320,18.555,19.531
1643749544.893,28.320,27.832,30.273,15.137,39.551
1643749544.896,30.273,25.391,30.762,25.879,42.969
1643749544.900,26.855,25.879,31.738,34.668,27.832
1643749544.904,16.602,24.902,28.320,31.250,38.086
1643749544.908,13.672,26.367,26.855,21.973,41.016
1643749544.912,20.020,28.809,29.785,28.320,0.977
1643749544.916,33.691,29.785,31.738,46.875,11.719
1643749544.920,38.086,32.715,32.227,46.875,34.180
1643749544.923,32.715,34.180,29.297,23.926,3.418
1643749544.927,31.250,34.180,27.832,21.484,-28.809
1643749544.931,37.109,32.715,29.297,36.621,2.930
1643749544.935,35.156,29.297,27.344,38.086,73.242
1643749544.939,34.180,32.227,28.320,30.762,50.781
1643749544.955,34.180,31.738,31.250,25.879,-31.738
1643749544.959,34.668,32.227,32.715,27.832,-29.785
1643749544.963,34.668,32.715,33.691,41.016,57.129
1643749544.967,28.809,25.879,34.180,41.016,41.992
1643749544.971,35.645,22.949,37.598,32.715,3.906
1643749544.975,40.039,26.367,37.598,35.156,-31.250
1643749544.979,29.785,25.391,35.645,35.645,-8.789
1643749544.982,25.391,21.484,32.715,36.621,90.332
1643749544.986,29.297,23.926,31.738,35.156,52.246
1643749544.990,28.320,25.879,34.668,33.691,-15.625
1643749544.994,18.066,23.926,34.668,31.738,23.438
1643749544.998,11.719,21.484,33.691,24.902,58.105
1643749545.000,14.160,20.508,34.180,15.625,-5.859
1643749545.004,10.254,22.461,32.715,12.207,-57.617
1643749545.008,8.301,23.438,29.785,24.414,-7.812
1643749545.012,15.137,24.414,27.344,30.762,64.941
1643749545.016,21.484,25.391,28.320,25.879,66.406
1643749545.020,27.832,25.391,28.809,21.973,33.203
1643749545.024,25.879,28.320,27.832,25.391,50.293
1643749545.027,20.020,29.785,27.344,28.809,23.926
1643749545.031,25.391,30.273,29.297,28.320,14.648
1643749545.035,41.992,29.785,32.715,19.531,-11.719
1643749545.039,40.039,28.320,29.785,19.531,-16.113
1643749545.043,23.926,27.344,27.344,33.691,5.859
1643749545.045,22.949,28.809,26.855,32.227,36.621
1643749545.049,34.180,31.738,28.320,20.020,66.895
1643749545.053,42.480,34.668,31.250,21.973,-12.695
1643749545.057,41.016,33.691,30.273,30.762,6.348
1643749545.061,44.434,33.691,29.785,36.133,74.707
1643749545.065,44.434,34.668,28.320,26.855,40.039
1643749545.069,38.086,32.227,27.832,23.926,-0.488
1643749545.072,25.391,28.809,24.902,34.668,27.344
1643749545.076,17.090,26.367,24.902,42.480,63.477
1643749545.080,22.461,26.855,28.809,37.109,53.223
1643749545.084,23.438,26.367,28.809,30.273,17.578
1643749545.088,20.020,25.391,29.297,32.715,-14.648
1643749545.090,14.648,24.414,29.785,41.504,23.438
1643749545.094,11.719,25.391,27.832,40.039,49.316
1643749545.098,18.555,29.297,25.879,23.926,15.625
1643749545.102,20.996,29.297,25.391,19.531,-8.789
1643749545.106,16.602,30.273,26.367,25.879,34.180
1643749545.110,23.926,33.691,25.879,29.297,20.020
1643749545.114,24.902,33.691,24.902,19.531,33.203
1643749545.117,21.973,31.738,25.879,13.672,37.598
1643749545.121,26.855,29.785,28.320,20.508,-6.836
1643749545.125,33.691,30.762,27.344,23.926,62.012
1643749545.129,26.367,32.715,26.367,15.625,76.660
1643749545.133,14.648,33.203,28.320,9.766,24.414
1643749545.136,18.066,31.738,27.344,16.602,10.742
1643749545.140,19.043,32.227,24.902,25.391,41.016
1643749545.144,31.250,33.203,26.855,32.715,42.969
1643749545.148,39.062,32.715,28.320,30.762,10.254
1643749545.152,27.344,33.203,29.297,30.762,7.324
1643749545.156,32.227,34.180,30.762,42.480,51.270
1643749545.160,42.480,33.691,31.250,36.621,44.434
1643749545.163,43.945,34.668,31.250,31.250,37.109
1643749545.167,41.992,35.645,29.785,36.133,45.898
1643749545.171,40.527,31.250,29.297,37.109,15.625
1643749545.175,41.016,30.273,30.273,39.062,73.730
1643749545.179,32.715,33.691,31.738,33.691,78.613
1643749545.180,22.949,32.227,31.738,31.738,-10.742
1643749545.184,26.367,25.879,33.203,39.062,-30.273
1643749545.188,26.855,26.367,37.598,39.062,32.227
1643749545.192,25.391,27.344,39.062,29.785,90.820
1643749545.196,16.602,25.391,34.180,22.949,12.207
1643749545.200,11.719,27.344,31.250,24.414,-42.480
1643749545.204,28.809,28.320,33.203,39.062,61.523
1643749545.207,31.738,26.855,34.668,31.738,60.059
1643749545.211,21.973,31.250,30.273,12.207,-26.367
1643749545.215,19.531,32.227,25.879,16.113,6.836
1643749545.219,22.461,30.762,27.344,29.785,58.105
1643749545.223,14.160,31.250,26.855,27.344,61.035
1643749545.225,20.508,30.273,27.832,22.949,31.738
1643749545.229,29.785,28.320,29.297,19.531,6.348
1643749545.233,23.438,28.320,27.344,17.090,29.297
1643749545.237,20.508,31.250,29.785,28.320,105.469
1643749545.241,26.855,31.250,32.227,26.367,95.215
1643749545.245,30.273,31.738,31.250,27.832,45.898
1643749545.249,23.926,32.715,30.273,34.668,39.062
1643749545.252,23.926,35.645,28.809,34.668,5.371
1643749545.256,21.973,33.691,27.344,30.273,41.992
1643749545.260,27.344,30.273,29.785,21.484,42.969
1643749545.264,30.273,29.785,33.691,22.461,-18.066
1643749545.268,26.855,28.320,32.227,32.715,2.930
1643749545.270,32.715,27.344,32.715,35.645,21.484
1643749545.274,35.156,28.809,35.156,30.273,-51.270
1643749545.278,27.344,28.809,32.227,28.809,-73.242
1643749545.282,27.832,28.809,31.738,36.621,-4.395
1643749545.286,25.879,31.250,34.180,38.086,49.805
1643749545.290,20.508,31.738,35.156,33.203,40.039
1643749545.294,20.020,31.738,34.668,32.227,-29.297
1643749545.297,19.043,31.250,28.809,28.809,2.441
1643749545.301,24.414,32.715,28.809,31.250,100.586
1643749545.305,33.691,33.203,35.645,29.297,132.324
1643749545.309,27.832,34.668,34.668,15.625,66.406
1643749545.313,29.297,35.645,31.250,20.996,-3.418
1643749545.330,29.785,33.203,32.227,38.086,35.156
1643749545.334,12.695,36.133,31.250,31.250,43.945
1643749545.338,12.695,36.621,30.273,18.555,10.742
1643749545.342,14.648,33.691,29.297,18.555,25.879
1643749545.346,0.977,36.133,26.367,25.391,53.711
1643749545.350,3.906,38.086,27.344,21.484,44.434
1643749545.354,10.742,37.109,26.855,12.695,59.570
1643749545.357,7.324,36.133,24.414,11.230,60.547
1643749545.361,13.184,32.715,26.855,19.531,58.594
1643749545.365,15.625,30.273,31.738,27.832,59.082
1643749545.369,10.254,29.785,28.809,16.113,-1.465
1643749545.373,-3.418,30.273,26.855,0.488,-16.602
1643749545.375,9.277,27.344,29.297,11.719,-20.020
1643749545.379,21.484,26.855,29.297,29.297,-22.461
1643749545.383,11.719,27.832,27.344,25.391,50.293
1643749545.387,12.207,28.320,25.391,15.625,40.039
1643749545.391,10.254,28.320,24.902,16.602,-8.301
1643749545.395,10.742,28.320,25.879,28.809,50.293
1643749545.399,19.043,29.297,27.832,30.762,52.734
1643749545.402,24.902,29.785,27.344,17.090,-28.320
1643749545.406,21.973,28.320,26.855,18.555,-48.340
1643749545.410,18.066,27.344,30.273,26.855,8.789
1643749545.414,18.555,27.344,32.227,24.414,63.477
1643749545.418,24.414,31.738,32.227,19.043,33.203
1643749545.420,21.484,30.273,32.715,18.555,-14.160
1643749545.424,14.160,28.320,31.250,25.391,1.465
1643749545.428,20.508,34.180,30.762,36.621,44.922
1643749545.432,21.484,36.621,30.762,31.250,41.016
1643749545.436,19.043,34.668,29.785,16.113,18.066
1643749545.440,21.484,33.203,29.785,25.391,34.180
1643749545.444,14.648,33.203,27.832,31.738,54.199
1643749545.447,23.438,32.715,28.320,26.367,48.828
1643749545.451,29.785,32.227,29.297,23.438,10.742
1643749545.455,21.484,34.180,28.320,20.508,27.832
1643749545.459,14.648,35.645,26.855,25.391,93.750
1643749545.463,17.090,36.621,27.832,23.438,74.219
1643749545.464,27.344,33.203,28.320,18.066,-14.160
1643749545.468,28.320,31.738,25.879,21.484,26.855
1643749545.472,26.855,32.715,23.438,27.832,127.930
1643749545.476,21.973,31.738,20.996,27.832,45.410
1643749545.480,11.719,31.738,22.949,19.531,12.207
1643749545.484,8.789,31.250,25.391,16.113,24.902
1643749545.488,15.137,33.691,24.414,23.926,15.137
1643749545.491,27.832,33.203,24.902,29.297,54.688
1643749545.495,20.508,28.809,29.297,21.973,58.105
1643749545.499,18.066,29.297,30.273,17.090,-3.906
1643749545.503,28.809,30.273,27.344,25.391,-15.625
1643749545.507,28.320,27.344,26.855,33.203,88.867
1643749545.510,17.578,26.367,26.367,20.508,101.562
1643749545.514,20.508,26.367,28.809,14.160,-7.812
1643749545.518,24.902,27.344,31.250,24.414,-43.945
1643749545.522,21.973,28.809,31.250,34.668,-5.371
1643749545.526,26.855,27.344,31.738,29.785,43.457
1643749545.530,24.414,26.855,31.738,18.066,41.016
1643749545.534,20.508,26.855,30.273,20.020,0.977
1643749545.537,24.414,25.391,30.273,24.414,-2.930
1643749545.541,15.625,28.320,30.273,24.414,41.992
1643749545.545,17.090,30.273,30.273,20.996,32.227
1643749545.549,29.785,25.879,33.203,23.438,-28.320
1643749545.553,30.273,25.879,33.203,35.645,19.531
1643749545.555,26.855,26.367,33.691,39.551,77.148
1643749545.559,24.414,27.832,31.738,29.297,53.711
1643749545.563,22.949,32.715,32.227,16.602,-15.625
1643749545.567,19.043,30.762,30.273,20.020,3.418
1643749545.571,20.508,29.297,28.320,30.273,35.645
1643749545.575,21.973,33.203,30.273,27.832,12.207
1643749545.579,20.996,34.668,30.762,20.996,32.715
1643749545.582,23.438,36.621,29.297,15.625,27.832
1643749545.586,17.578,36.133,25.391,20.508,43.945
1643749545.590,20.020,33.203,24.414,23.438,54.199
1643749545.594,26.367,32.227,26.367,23.438,-5.859
1643749545.598,15.137,32.227,24.902,23.926,-22.461
1643749545.601,13.184,35.645,25.391,25.879,23.438
1643749545.605,25.391,36.621,28.809,35.156,45.898
1643749545.609,31.250,32.715,30.273,31.250,46.875
1643749545.613,30.762,34.668,27.832,16.602,28.320
1643749545.617,25.879,33.691,26.855,21.484,47.363
1643749545.621,18.066,29.785,28.809,33.203,92.285
1643749545.625,13.184,30.273,30.762,23.926,31.738
1643749545.628,6.348,30.762,31.738,14.648,-42.480
1643749545.632,9.277,29.785,29.785,19.531,-23.926
1643749545.636,24.414,28.809,30.762,32.715,44.434
1643749545.640,25.879,28.809,32.227,28.320,83.496
1643749545.644,22.461,29.785,30.762,18.555,14.160
1643749545.645,20.996,33.203,28.809,23.438,-14.648
1643749545.649,18.066,32.715,26.367,31.738,66.895
1643749545.653,30.273,28.320,30.273,38.086,82.031
1643749545.657,39.551,25.391,33.203,26.367,11.230
1643749545.661,34.180,26.367,31.738,26.855,21.973
1643749545.665,27.832,29.297,31.250,41.016,67.383
1643749545.669,30.273,26.855,34.668,39.551,37.598
1643749545.672,22.949,28.320,31.738,24.902,30.273
1643749545.676,19.531,28.809,26.855,17.578,36.133
1643749545.680,28.320,25.391,28.809,26.855,-2.441
1643749545.684,31.250,24.414,27.832,31.250,57.617
1643749545.688,35.645,27.344,27.832,29.785,85.938
1643749545.705,33.203,27.344,28.809,29.785,6.348
1643749545.709,22.461,27.832,28.320,30.762,-17.578
1643749545.713,23.438,28.809,30.762,40.039,32.715
1643749545.717,28.809,28.809,29.297,40.527,81.543
1643749545.721,28.809,29.297,28.809,28.809,79.590
1643749545.725,16.602,29.297,27.344,17.090,87.891
1643749545.729,20.020,28.320,25.879,21.484,96.680
1643749545.732,26.367,27.344,25.879,24.902,72.754
1643749545.736,22.949,28.320,28.809,22.461,40.527
1643749545.740,29.785,27.344,32.227,20.996,45.898
1643749545.744,30.762,27.832,29.785,17.578,44.434
1643749545.748,25.391,30.273,24.902,24.414,100.098
1643749545.750,28.320,31.250,26.367,22.949,65.918
1643749545.754,36.621,31.250,30.762,18.555,-17.090
1643749545.758,30.273,32.227,29.297,16.602,-31.250
1643749545.762,22.461,29.297,29.297,23.438,22.461
1643749545.766,24.414,29.297,31.250,26.855,47.363
1643749545.770,18.555,29.785,31.738,18.066,15.625
1643749545.774,17.090,29.297,32.715,24.414,-45.410
1643749545.777,19.043,30.273,30.762,35.645,1.953
1643749545.781,28.320,28.320,30.762,34.668,65.430
1643749545.785,29.297,29.297,32.227,16.113,-0.488
1643749545.789,30.762,30.273,32.715,19.043,-29.785
1643749545.793,39.551,26.855,29.297,40.527,25.879
1643749545.795,36.621,27.832,28.809,42.480,61.035
1643749545.799,29.297,29.297,31.738,29.297,37.598
1643749545.803,32.227,30.762,30.762,27.832,14.160
1643749545.807,31.250,30.762,29.297,41.504,51.758
1643749545.811,22.461,31.250,30.762,44.922,61.035
1643749545.815,24.902,30.762,33.691,39.062,69.824
1643749545.819,31.738,25.391,38.086,33.203,41.504
1643749545.822,33.203,23.926,37.109,35.156,9.277
1643749545.826,33.691,25.879,35.156,44.434,49.316
1643749545.830,27.832,28.809,32.227,39.062,40.527
1643749545.834,30.273,28.809,31.738,26.367,29.785
1643749545.838,27.344,30.273,32.715,22.461,9.277
1643749545.840,24.902,30.762,32.715,21.973,-3.906
1643749545.844,32.715,26.367,33.203,26.367,-10.742
1643749545.848,29.785,26.855,31.250,23.926,9.277
1643749545.852,32.227,28.809,29.785,18.066,14.648
1643749545.856,32.227,27.832,30.273,23.438,44.434
1643749545.860,25.879,27.344,32.227,31.738,68.359
1643749545.864,24.414,29.785,30.273,25.879,15.625
1643749545.867,28.809,28.809,30.762,24.902,-19.531
1643749545.871,26.855,28.320,31.250,31.738,21.973
1643749545.875,24.414,30.762,25.879,30.273,101.562
1643749545.879,25.879,27.832,28.320,28.320,59.570
1643749545.883,30.273,28.809,31.738,21.484,1.953
1643749545.885,26.367,31.250,28.809,21.973,13.672
1643749545.889,18.066,30.273,27.832,35.645,89.355
1643749545.893,22.949,29.297,31.738,37.109,89.844
1643749545.897,26.855,28.320,34.180,27.832,-8.301
1643749545.901,24.902,26.855,31.250,24.414,0.488
1643749545.905,20.508,28.809,28.320,29.297,48.828
1643749545.909,22.461,29.297,28.320,33.203,92.773
1643749545.912,25.391,29.297,32.227,28.809,72.754
1643749545.916,26.855,29.297,32.227,24.414,18.555
1643749545.920,24.902,24.902,30.273,27.832,20.508
1643749545.924,17.578,25.391,30.273,33.203,111.816
1643749545.928,14.160,27.832,31.250,29.297,59.082
1643749545.930,19.043,29.785,32.227,20.020,-23.926
1643749545.934,17.578,31.738,32.227,20.508,41.504
1643749545.938,14.160,32.715,31.250,30.273,88.867
1643749545.942,27.344,33.203,32.715,35.156,48.828
1643749545.946,32.227,33.203,36.621,27.832,38.086
1643749545.950,24.414,34.180,35.645,23.926,27.344
1643749545.954,27.832,32.715,32.715,29.785,15.137
1643749545.957,29.297,31.738,33.691,29.785,20.508
1643749545.961,23.438,31.250,30.762,15.625,-21.973
1643749545.965,23.438,27.832,29.297,14.160,-5.371
1643749545.969,22.949,26.855,32.227,31.250,19.043
1643749545.973,24.902,30.273,31.738,29.297,53.223
1643749545.975,30.273,28.809,31.250,16.602,41.504
1643749545.979,30.273,29.785,29.785,9.766,-13.184
1643749545.983,40.039,30.762,29.297,15.625,31.738
1643749545.987,38.086,27.344,29.297,25.391,100.586
1643749545.991,23.438,26.855,29.785,27.832,76.172
1643749545.995,21.973,26.367,33.691,34.180,17.090
1643749545.999,18.555,27.344,33.691,35.645,38.086
1643749546.002,17.090,26.367,30.762,40.527,70.312
1643749546.006,15.625,24.902,27.832,34.180,44.922
1643749546.010,14.160,27.344,29.297,20.996,-16.602
1643749546.014,13.184,29.785,30.762,24.414,-12.207
1643749546.018,14.160,29.785,29.297,26.367,48.340
1643749546.019,17.090,29.297,30.273,19.531,102.051
1643749546.023,13.672,28.809,30.762,10.254,89.844
1643749546.027,20.508,29.785,32.227,14.160,0.977
1643749546.031,28.809,29.297,32.227,27.344,10.254
1643749546.035,34.180,30.273,29.297,34.668,85.449
1643749546.039,37.598,28.320,31.738,27.832,28.320
1643749546.043,28.320,26.367,34.180,24.414,-13.672
1643749546.046,23.438,29.785,33.203,35.645,50.781
1643749546.050,25.391,29.297,32.715,35.156,64.941
1643749546.054,28.809,27.344,32.227,25.391,50.293
1643749546.058,31.738,26.367,31.250,23.926,-19.043
1643749546.062,37.109,27.344,30.273,26.367,-21.973
1643749546.066,38.574,27.344,28.809,31.738,27.832
1643749546.070,27.832,24.414,29.785,31.738,46.387
1643749546.074,18.066,23.926,28.320,19.531,39.551
1643749546.078,20.996,25.391,25.879,18.555,37.109
1643749546.082,26.367,24.902,27.832,28.809,53.223
1643749546.086,23.926,24.902,28.320,22.461,22.461
1643749546.090,27.344,24.902,28.809,12.207,-19.043
1643749546.093,26.855,24.414,30.273,13.672,-3.906
1643749546.097,25.879,24.414,29.297,29.785,59.082
1643749546.101,25.879,26.855,29.297,38.086,88.867
1643749546.105,25.391,26.855,29.785,25.391,48.340
1643749546.109,23.926,24.902,30.273,16.113,28.320
1643749546.125,22.461,25.879,31.250,21.973,37.109
1643749546.129,18.066,27.832,30.273,29.785,80.078
1643749546.133,19.043,29.785,30.273,21.973,58.594
1643749546.137,23.438,29.785,30.762,16.602,-11.719
1643749546.141,18.555,28.809,30.762,20.996,4.883
1643749546.145,22.949,28.809,33.203,29.785,27.344
1643749546.149,28.809,28.320,32.227,32.227,41.504
1643749546.152,21.973,27.344,29.297,20.996,27.832
1643749546.156,22.949,25.879,27.832,21.484,19.043
1643749546.160,25.391,29.297,27.344,29.785,32.227
1643749546.164,31.250,30.273,25.391,31.250,42.969
1643749546.168,36.133,28.320,25.879,32.715,6.348
1643749546.170,27.832,33.203,26.855,28.320,-21.973
1643749546.174,24.414,34.180,28.320,28.320,29.785
1643749546.178,30.762,30.273,27.832,36.133,89.844
1643749546.182,27.832,32.227,25.391,29.297,31.738
1643749546.186,31.738,31.738,27.832,24.414,-24.414
1643749546.190,40.039,33.203,30.273,31.250,-22.461
1643749546.194,39.551,32.227,31.738,33.691,25.391
1643749546.197,37.598,29.785,31.738,32.227,28.320
1643749546.201,35.156,28.809,32.227,29.785,-14.160
1643749546.205,29.297,29.297,33.203,26.855,-11.230
1643749546.209,24.902,27.832,31.250,34.668,38.086
1643749546.213,27.832,25.879,31.738,31.738,74.219
1643749546.215,31.738,26.855,33.203,21.484,38.086
1643749546.219,24.902,29.785,32.715,25.391,-54.688
1643749546.223,25.391,26.855,32.715,32.715,-16.113
1643749546.227,29.785,26.367,32.715,31.738,60.547
1643749546.231,24.902,30.273,31.250,24.902,6.348
1643749546.235,21.973,28.809,32.227,20.508,-19.531
1643749546.239,24.902,27.344,32.227,24.902,0.000
1643749546.242,24.902,29.297,29.785,28.320,76.172
1643749546.246,14.648,30.762,31.250,21.484,59.570
1643749546.250,16.113,29.785,32.227,18.555,-8.301
1643749546.254,25.391,29.785,31.250,30.273,21.484
1643749546.258,20.996,31.738,28.809,30.762,56.641
1643749546.275,24.902,28.320,31.250,23.926,27.832
1643749546.279,32.227,27.344,34.180,28.320,-33.203
1643749546.283,28.320,30.273,33.691,32.227,25.391
1643749546.287,25.391,28.320,34.668,30.273,62.988
1643749546.291,23.926,27.344,31.738,23.438,22.461
1643749546.295,19.043,25.879,32.227,13.184,-20.996
1643749546.299,13.184,24.902,32.715,12.695,-13.672
1643749546.302,15.137,24.414,33.203,19.043,31.738
1643749546.306,19.531,24.902,35.645,21.484,18.555
1643749546.310,18.555,25.391,29.785,20.508,19.531
1643749546.314,10.742,25.391,25.879,18.066,-6.348
1643749546.318,6.836,26.855,29.785,29.785,16.113
1643749546.304,12.695,27.832,30.762,37.598,58.105
1643749546.308,11.230,27.344,28.809,29.297,45.410
1643749546.312,14.648,28.320,30.273,28.809,58.594
1643749546.316,15.137,26.855,32.715,26.855,33.203
1643749546.320,14.648,25.391,34.668,26.367,56.152
1643749546.324,19.043,25.391,33.691,26.367,57.129
1643749546.328,19.043,24.902,32.715,21.484,2.441
1643749546.331,20.020,23.926,34.668,28.320,40.527
1643749546.335,17.578,23.926,35.645,36.133,48.828
1643749546.339,21.973,23.438,37.109,35.645,62.988
1643749546.343,27.832,25.391,37.598,30.273,49.316
1643749546.347,20.508,27.832,38.086,20.996,-13.184
1643749546.351,27.344,28.320,35.156,26.855,16.113
1643749546.355,33.203,29.297,35.156,30.273,36.133
1643749546.359,31.738,30.762,34.668,20.020,9.766
1643749546.363,27.344,30.762,31.738,15.137,-24.902
1643749546.367,15.137,28.809,30.273,20.508,45.410
1643749546.371,16.113,26.367,34.668,26.855,126.953
1643749546.375,24.414,26.855,37.109,21.973,45.898
1643749546.378,24.902,27.344,35.645,19.531,-2.930
1643749546.382,21.484,27.344,31.738,26.367,31.250
1643749546.386,20.996,29.785,29.785,30.762,96.191
1643749546.390,25.391,27.832,33.203,31.250,118.652
1643749546.394,25.391,27.344,35.645,25.391,46.387
1643749546.394,21.484,26.855,35.156,24.902,-37.598
1643749546.398,20.508,29.785,33.691,31.250,25.879
1643749546.402,24.902,30.762,34.180,34.180,80.566
1643749546.406,28.809,31.250,31.738,21.973,21.484
1643749546.410,26.367,32.715,28.809,22.949,-9.766
1643749546.414,17.578,30.762,27.344,28.809,6.348
1643749546.418,20.508,33.203,29.297,22.949,25.391
1643749546.421,27.832,34.180,31.250,19.531,13.184
1643749546.425,19.531,28.320,30.762,26.855,14.160
1643749546.429,18.555,27.344,30.762,36.133,-1.953
1643749546.433,26.855,30.762,27.832,41.992,38.086
1643749546.437,35.156,33.203,28.320,48.828,83.984
1643749546.455,30.762,35.645,28.809,31.738,23.438
1643749546.459,23.438,33.691,26.367,24.414,-45.898
1643749546.463,30.273,31.738,27.344,38.574,19.531
1643749546.467,32.227,33.691,28.809,40.527,96.191
1643749546.471,30.273,31.250,29.297,25.879,-6.348
1643749546.475,34.180,28.809,29.297,19.531,-60.059
1643749546.479,37.109,30.273,28.809,37.109,42.969
1643749546.482,38.086,30.762,31.250,41.504,86.426
1643749546.486,40.527,31.738,32.715,30.762,23.926
1643749546.490,34.668,30.273,31.738,22.461,-24.414
1643749546.494,25.879,28.320,32.715,26.367,-6.348
1643749546.498,29.297,29.785,32.227,34.180,44.434
1643749546.500,28.320,31.738,30.762,28.320,41.016
1643749546.504,18.066,34.180,30.762,20.508,0.488
1643749546.508,19.531,30.762,31.250,29.297,-5.371
1643749546.512,26.855,29.785,33.691,37.598,65.430
1643749546.516,24.414,29.297,37.598,28.809,89.355
1643749546.520,15.625,25.391,41.504,20.508,46.387
1643749546.524,13.184,24.902,41.016,20.996,30.273
1643749546.527,12.207,22.461,39.062,25.391,51.270
1643749546.531,11.230,20.996,37.109,21.973,52.246
1643749546.535,12.207,25.879,36.621,8.789,14.160
1643749546.539,20.020,25.391,34.668,8.789,20.020
1643749546.543,13.184,25.879,31.250,20.020,69.336
1643749546.545,13.672,27.832,32.715,22.949,62.012
1643749546.549,28.320,30.273,32.227,20.020,-19.531
1643749546.553,20.996,32.715,27.832,12.207,-33.203
1643749546.557,14.160,31.250,25.879,20.020,27.344
1643749546.561,21.484,33.691,26.855,34.668,74.707
1643749546.565,24.414,34.180,28.320,28.320,27.832
1643749546.569,17.578,33.691,26.367,18.066,-28.320
1643749546.572,13.672,32.715,25.879,23.926,30.762
1643749546.576,19.043,32.227,28.320,30.273,55.176
1643749546.580,22.949,33.203,28.320,26.367,10.254
1643749546.584,25.879,32.227,27.344,18.066,2.441
1643749546.588,23.926,32.715,26.367,20.508,-17.090
1643749546.591,15.137,35.645,24.902,26.367,47.852
1643749546.595,18.066,36.621,26.855,30.273,107.910
1643749546.599,22.949,38.574,30.273,27.832,16.602
1643749546.603,24.414,41.504,38.086,28.320,-43.457
1643749546.607,32.715,43.945,52.734,39.062,60.059
1643749546.611,27.344,41.992,47.363,35.645,91.309
1643749546.615,14.648,43.457,45.410,15.137,17.578
1643749546.618,0.000,36.621,53.711,-9.277,-0.488
1643749546.622,-12.695,29.785,51.758,-8.789,13.672
1643749546.626,-27.832,43.945,46.875,-16.113,57.129
1643749546.630,-50.293,60.547,60.059,-45.898,41.504
1643749546.634,-62.988,59.570,81.543,-71.777,-4.883
1643749546.635,-87.402,65.918,74.219,-99.609,20.020
1643749546.639,-112.305,84.473,77.148,-113.770,51.270
1643749546.643,-135.254,88.867,83.008,-128.418,70.801
1643749546.647,-161.133,89.844,76.172,-154.785,3.906
1643749546.651,-157.715,88.379,76.172,-145.996,-71.777
1643749546.655,-139.648,101.562,83.984,-124.023,19.531
1643749546.659,-136.719,105.957,86.426,-135.742,50.293
1643749546.662,-145.996,84.961,80.566,-157.715,-3.906
1643749546.666,-137.695,87.402,83.984,-150.879,7.812
1643749546.670,-136.719,100.586,81.055,-132.324,37.598
1643749546.674,-141.113,95.215,72.754,-126.465,51.758
1643749546.678,-131.348,95.215,68.359,-122.559,47.852
1643749546.680,-125.977,94.727,63.477,-124.512,-11.230
1643749546.684,-123.535,86.426,65.430,-122.070,0.000
1643749546.688,-113.770,91.309,62.012,-110.840,81.055
1643749546.692,-102.539,83.984,63.477,-105.957,52.246
1643749546.696,-99.121,84.473,65.918,-103.027,5.371
1643749546.700,-91.797,89.844,60.059,-92.773,-20.996
1643749546.704,-88.867,83.984,50.293,-89.844,66.406
1643749546.707,-82.031,84.961,55.664,-81.055,89.844
1643749546.711,-73.730,79.102,57.617,-77.148,15.625
1643749546.715,-64.941,76.660,60.059,-65.430,35.645
1643749546.719,-63.477,75.684,62.988,-50.781,39.062
1643749546.723,-66.895,66.406,57.129,-55.176,65.430
1643749546.725,-64.453,65.430,55.176,-67.383,42.969
1643749546.729,-47.363,71.289,62.012,-53.711,-29.785
1643749546.733,-45.898,68.848,63.477,-30.762,-4.883
1643749546.737,-62.988,57.617,59.570,-34.180,75.684
1643749546.741,-59.082,52.734,61.523,-41.992,57.617
1643749546.745,-52.246,55.664,65.918,-48.340,25.391
1643749546.749,-53.223,54.199,62.012,-46.875,4.395
1643749546.752,-63.477,51.270,51.270,-40.039,14.160
1643749546.756,-45.410,57.129,53.223,-26.855,59.082
1643749546.760,-18.066,55.176,64.941,-13.672,56.641
1643749546.764,-32.715,41.992,56.152,-22.461,55.664
1643749546.768,-42.480,38.574,50.293,-19.531,46.387
1643749546.770,-42.480,39.062,53.711,-10.254,18.555
1643749546.774,-38.086,40.527,44.922,-23.926,12.207
1643749546.778,-32.227,41.016,43.457,-28.809,13.672
1643749546.782,-22.949,38.574,48.340,-14.648,25.879
1643749546.786,-6.836,38.574,44.434,-3.418,51.270
1643749546.790,-6.836,38.086,39.062,-9.277,40.039
1643749546.794,-13.184,38.086,41.992,-14.648,10.254
1643749546.797,-7.324,38.574,43.945,4.395,-10.742
1643749546.801,6.348,35.645,42.480,24.902,55.176
1643749546.805,11.230,28.809,42.480,21.484,67.871
1643749546.809,12.695,24.902,42.969,18.066,-52.246
1643749546.813,24.414,24.414,42.480,33.691,4.395
1643749546.816,43.457,23.438,39.062,57.617,68.848
1643749546.820,47.852,12.695,39.551,66.406,24.902
1643749546.824,55.176,3.418,40.039,67.871,-11.230
1643749546.828,70.801,4.395,30.273,80.566,4.395
1643749546.832,79.102,0.000,26.855,104.004,76.172
1643749546.836,92.773,-2.930,26.367,112.305,81.543
1643749546.840,107.422,-4.883,21.973,117.188,19.531
1643749546.843,112.793,-6.836,12.695,118.652,-40.527
1643749546.847,122.559,-8.301,5.859,119.141,-32.227
1643749546.851,131.348,-14.160,5.859,135.254,33.691
1643749546.855,132.812,-18.066,4.883,132.812,31.738
1643749546.859,129.883,-19.043,0.000,123.535,-21.484
1643749546.875,117.676,-19.531,-5.371,130.859,27.344
1643749546.879,125.488,-21.484,-6.348,139.648,68.359
1643749546.883,137.695,-24.902,-6.348,141.113,20.996
1643749546.887,132.324,-26.367,-7.324,133.301,25.879
1643749546.891,135.254,-26.367,-8.301,130.859,10.742
1643749546.895,135.254,-21.484,-6.836,131.836,39.551
1643749546.899,128.418,-17.578,-6.348,128.906,52.246
1643749546.902,130.859,-18.066,-9.277,117.676,11.719
1643749546.906,137.695,-21.484,-8.301,111.816,34.180
1643749546.910,138.672,-26.367,-8.789,108.887,43.945
1643749546.914,132.324,-14.648,-9.766,107.910,59.082
1643749546.918,125.488,-8.301,-9.766,107.422,43.945
1643749546.920,115.723,-20.020,-11.719,103.027,-20.508
1643749546.924,107.422,-21.973,-7.812,114.258,28.320
1643749546.928,102.051,-19.043,-7.324,122.070,91.309
1643749546.932,105.469,-15.625,-10.742,117.676,21.484
1643749546.936,113.281,-13.672,-10.742,113.281,-22.949
1643749546.940,101.074,-11.230,-11.230,112.305,49.316
1643749546.944,92.773,-3.906,-11.230,114.746,75.195
1643749546.947,104.980,-3.906,-11.719,104.492,19.043
1643749546.951,101.562,-7.324,-10.742,100.098,-47.363
1643749546.955,107.422,-6.836,-9.766,111.328,-6.836
1643749546.959,117.676,-8.789,-10.742,113.281,84.473
1643749546.963,104.980,-5.859,-8.301,108.398,75.195
1643749546.966,106.934,0.000,-5.371,99.121,40.039
1643749546.970,107.422,-0.977,-6.348,89.844,-5.371
1643749546.974,101.074,0.488,-6.836,98.633,45.410
1643749546.978,93.750,6.348,-5.859,101.562,111.816
1643749546.982,91.309,6.348,-3.906,90.820,50.781
1643749546.986,95.215,4.395,-2.930,91.309,16.602
1643749546.990,98.145,6.348,-2.930,97.168,28.320
1643749546.993,105.469,9.277,0.488,93.750,53.223
1643749546.997,100.586,10.742,1.953,83.496,38.574
1643749547.001,84.961,12.207,0.000,79.102,-35.645
1643749547.005,68.848,12.695,1.465,83.496,-28.320
1643749547.009,71.289,12.695,4.883,86.426,36.621
1643749547.010,81.543,13.184,5.859,74.219,7.812
1643749547.014,79.590,13.672,7.812,60.059,16.113
1643749547.018,73.730,15.625,11.230,68.848,53.711
1643749547.022,72.754,15.137,11.230,77.637,48.828
1643749547.026,71.289,14.648,11.719,67.383,44.922
1643749547.030,69.336,15.137,12.695,65.430,20.020
1643749547.034,62.988,17.578,11.230,67.871,9.277
1643749547.037,64.453,20.508,13.184,64.941,48.340
1643749547.041,71.289,20.020,15.137,63.477,54.688
1643749547.045,57.129,18.555,15.625,58.105,49.316
1643749547.049,55.664,17.578,17.090,52.246,-14.648
1643749547.053,57.617,20.508,16.602,52.734,-34.180
1643749547.056,51.758,23.438,15.625,52.246,96.680
1643749547.060,45.898,21.973,14.160,43.457,103.027
1643749547.064,42.480,23.438,17.090,39.062,7.812
1643749547.068,43.945,23.926,19.043,41.992,-2.441
1643749547.072,41.992,21.973,19.043,51.270,10.742
1643749547.076,49.316,21.484,20.020,44.434,30.273
1643749547.080,48.828,23.438,20.996,31.250,13.672
1643749547.083,38.574,21.973,22.461,34.180,20.508
1643749547.087,33.691,19.531,20.508,41.504,32.227
1643749547.091,32.227,20.020,20.020,39.062,60.059
1643749547.095,33.691,23.926,21.484,29.785,62.012
1643749547.099,37.109,24.414,22.949,33.691,-43.945
1643749547.100,42.969,21.484,19.043,38.086,-42.969
1643749547.104,40.527,23.926,16.113,41.016,77.637
1643749547.108,41.992,26.367,22.461,38.574,40.527
1643749547.112,47.363,26.855,26.367,31.250,-14.160
1643749547.116,33.691,26.367,25.879,36.621,9.766
1643749547.120,29.297,28.320,28.320,47.852,48.828
1643749547.124,33.203,29.785,30.762,37.109,45.898
1643749547.127,28.320,29.785,29.297,25.391,16.602
1643749547.131,29.297,29.297,28.809,32.227,-10.254
1643749547.135,32.715,27.344,26.367,33.203,51.270
1643749547.139,32.227,26.855,26.367,29.297,62.012
1643749547.143,31.738,29.785,25.391,18.066,-5.859
1643749547.145,27.832,32.227,21.973,15.625,25.879
1643749547.149,41.504,30.273,23.926,34.180,76.660
1643749547.153,48.828,28.809,22.461,34.668,101.562
1643749547.157,38.574,32.227,20.508,26.855,27.344
1643749547.161,33.691,33.203,19.531,32.227,-13.184
1643749547.165,27.832,31.250,22.461,33.691,33.203
1643749547.169,24.902,28.320,26.367,25.391,34.180
1643749547.172,32.715,25.879,25.391,20.020,26.367
1643749547.176,32.227,26.855,24.902,20.020,8.301
1643749547.180,34.668,25.879,24.902,31.250,-47.363
1643749547.184,38.574,25.879,22.949,41.016,33.691
1643749547.188,36.133,27.344,24.414,37.598,69.824
1643749547.205,35.156,26.855,26.367,31.250,39.551
1643749547.209,31.738,26.367,26.367,35.156,54.199
1643749547.213,32.227,25.879,27.832,46.387,60.547
1643749547.217,38.086,23.926,30.762,38.574,74.219
1643749547.221,41.016,24.902,32.227,23.926,-0.488
1643749547.225,30.273,26.367,29.297,21.973,-6.836
1643749547.229,24.902,23.438,26.855,30.762,44.434
1643749547.232,25.391,21.484,25.879,32.715,52.734
1643749547.236,21.973,24.902,25.879,23.926,19.043
1643749547.240,23.926,29.297,29.785,28.809,-47.852
1643749547.244,22.461,26.855,32.227,34.668,-50.293
1643749547.248,17.090,25.391,29.785,37.109,49.316
1643749547.250,13.672,27.344,29.785,28.809,39.551
1643749547.254,20.508,27.344,30.762,12.695,-15.137
1643749547.258,29.785,27.832,30.762,18.555,6.836
1643749547.262,18.066,25.391,29.297,27.832,53.223
1643749547.266,9.766,23.926,27.344,22.949,75.195
1643749547.270,17.578,26.855,28.320,18.066,-7.812
1643749547.274,19.043,27.344,27.832,24.414,-24.414
1643749547.277,20.020,30.762,25.391,30.762,60.059
1643749547.281,21.484,33.203,26.855,29.297,85.449
1643749547.285,11.719,33.203,29.297,18.555,8.789
1643749547.289,5.859,32.715,27.832,17.090,-39.551
1643749547.293,17.578,32.715,26.855,27.344,-17.090
1643749547.295,25.391,31.250,27.344,28.809,39.062
1643749547.299,21.973,31.250,26.367,19.531,29.785
1643749547.303,27.344,30.273,25.879,13.184,-17.578
1643749547.307,32.715,26.855,29.297,28.809,4.395
1643749547.311,32.227,26.855,30.762,47.852,76.660
1643749547.315,31.250,32.227,29.297,41.992,44.434
1643749547.319,26.855,33.691,31.738,29.785,-11.719
1643749547.322,25.879,30.273,30.762,28.809,20.996
1643749547.326,24.414,32.227,28.320,26.855,47.852
1643749547.330,19.531,34.180,27.832,21.484,52.734
1643749547.334,22.461,33.203,25.879,19.043,39.551
1643749547.338,20.508,31.738,25.879,21.484,25.391
1643749547.355,26.855,32.715,27.832,33.203,51.758
1643749547.359,34.668,36.621,30.273,39.062,78.125
1643749547.363,27.344,33.691,32.227,33.203,65.918
1643749547.367,33.691,33.691,32.227,27.832,14.648
1643749547.371,33.691,34.180,33.203,33.203,-3.906
1643749547.375,25.391,29.297,32.227,38.086,34.668
1643749547.379,24.902,29.785,30.273,32.227,32.715
1643749547.382,29.785,31.738,32.715,33.691,13.672
1643749547.386,32.715,29.785,36.133,39.062,12.207
1643749547.390,30.273,25.879,33.203,31.250,46.875
1643749547.394,31.250,24.902,31.738,22.461,66.406
1643749547.398,32.227,28.809,33.203,29.297,49.316
1643749547.385,27.344,30.273,32.227,34.180,60.059
1643749547.389,24.902,27.344,31.738,36.621,71.289
1643749547.393,30.273,29.785,31.250,38.086,8.301
1643749547.397,25.391,33.203,26.855,11.230,-27.344
1643749547.401,19.531,30.762,29.785,9.766,-26.367
1643749547.405,19.531,27.832,33.203,26.855,-8.789
1643749547.409,19.531,29.297,33.203,26.855,10.742
1643749547.412,16.113,29.785,32.227,19.043,7.812
1643749547.416,14.648,29.785,29.785,8.789,3.906
1643749547.420,22.461,28.320,28.809,16.602,35.156
1643749547.424,28.320,29.297,28.809,25.391,89.355
1643749547.428,18.555,31.738,29.297,15.137,52.246
1643749547.430,14.160,28.809,28.809,6.348,24.902
1643749547.434,20.020,28.809,25.879,18.555,36.621
1643749547.438,21.973,28.809,26.855,29.785,46.387
1643749547.442,18.555,27.832,26.855,17.578,62.988
1643749547.446,15.137,26.367,26.367,8.301,5.371
1643749547.450,17.578,26.367,25.879,17.090,11.719
1643749547.454,19.043,28.320,24.414,25.391,65.918
1643749547.457,10.742,25.391,26.855,19.531,26.367
1643749547.461,6.348,25.879,25.879,12.207,39.062
1643749547.465,10.254,31.250,24.902,12.207,19.531
1643749547.469,22.949,31.250,28.320,27.344,-9.766
1643749547.473,27.832,29.297,29.785,38.086,27.344
1643749547.475,22.949,31.250,28.809,28.320,45.410
1643749547.479,25.391,30.762,32.227,23.926,44.922
1643749547.483,24.902,32.715,32.227,34.180,25.879
1643749547.487,33.203,33.203,28.320,33.691,37.109
1643749547.491,32.715,29.297,29.785,24.414,-2.930
1643749547.495,15.137,30.273,30.762,20.996,-20.996
1643749547.499,13.672,31.738,30.762,24.414,14.648
1643749547.502,21.484,31.738,27.344,26.367,69.824
1643749547.506,33.203,31.738,27.832,21.484,24.414
1643749547.510,37.109,31.250,26.855,16.113,-14.160
1643749547.514,28.809,32.227,23.926,22.461,34.180
1643749547.518,27.832,29.785,30.273,36.621,29.785
1643749547.521,27.344,27.344,32.227,33.691,51.758
1643749547.525,20.996,27.832,29.297,18.066,20.020
1643749547.529,25.391,28.809,28.809,17.090,17.578
1643749547.533,26.855,28.320,31.250,25.879,64.941
1643749547.537,27.832,25.879,31.738,28.320,55.176
1643749547.541,30.762,25.879,30.762,23.438,45.410
1643749547.545,20.508,25.879,32.227,13.184,8.789
1643749547.548,12.695,27.832,31.738,16.113,34.180
1643749547.552,16.602,28.809,30.762,26.855,98.633
1643749547.556,20.996,30.273,28.320,18.066,88.867
1643749547.560,24.414,29.785,26.855,13.672,41.016
1643749547.564,21.484,28.320,26.855,22.949,-15.137
1643749547.580,18.066,28.320,25.391,26.367,45.410
1643749547.584,21.484,31.738,26.855,24.902,64.453
1643749547.588,21.973,31.738,25.879,16.602,24.902
1643749547.592,11.719,30.762,24.902,11.719,0.000
1643749547.596,6.348,31.738,23.926,17.090,19.043
1643749547.600,15.625,29.297,23.926,14.648,-6.348
1643749547.604,17.578,30.273,24.414,2.930,-30.273
1643749547.607,22.949,30.762,23.438,7.812,2.930
1643749547.611,26.855,29.785,23.438,20.020,34.180
1643749547.615,24.414,28.809,23.926,29.785,62.012
1643749547.619,28.320,24.902,24.902,24.414,28.320
1643749547.623,25.879,26.855,25.879,20.996,-32.715
1643749547.625,17.090,26.367,26.367,31.250,1.465
1643749547.629,12.695,24.414,26.367,32.227,66.895
1643749547.633,11.719,24.414,27.344,23.438,65.918
1643749547.637,24.902,22.461,28.809,15.625,10.742
1643749547.641,37.109,22.949,27.832,24.902,0.488
1643749547.645,30.762,23.438,26.367,35.645,45.410
1643749547.649,28.320,24.902,28.320,27.344,9.766
1643749547.652,26.367,28.809,30.273,23.438,28.320
1643749547.656,22.461,25.391,31.738,25.391,62.500
1643749547.660,17.578,22.461,32.227,32.227,39.062
1643749547.664,20.020,24.902,29.785,35.156,62.500
1643749547.668,26.367,26.855,28.809,27.832,-16.113
1643749547.670,23.926,25.879,29.785,22.949,-12.207
1643749547.674,15.137,27.344,28.320,25.879,50.781
1643749547.678,16.602,29.785,26.855,35.156,74.219
1643749547.682,29.297,28.809,29.785,29.785,68.359
1643749547.686,26.367,29.785,31.738,18.066,14.160
1643749547.690,33.691,30.762,30.762,27.832,20.020
1643749547.694,32.227,30.273,29.297,31.250,36.133
1643749547.697,19.531,30.273,26.367,19.043,22.461
1643749547.701,17.578,29.785,27.832,11.230,15.625
1643749547.705,15.137,30.273,29.297,14.160,-7.324
1643749547.709,16.113,31.250,27.344,24.414,-16.113
1643749547.713,16.602,29.785,30.273,25.391,19.531
1643749547.715,15.137,29.297,34.180,12.695,3.906
1643749547.719,21.973,29.297,35.156,11.719,-17.578
1643749547.723,26.855,25.879,34.668,29.297,39.062
1643749547.727,26.855,21.973,33.691,35.156,89.844
1643749547.731,37.109,24.414,35.156,22.949,78.125
1643749547.735,30.273,27.344,32.715,13.184,20.508
1643749547.739,15.137,25.391,29.785,24.902,16.113
1643749547.742,17.090,27.832,31.738,29.297,48.340
1643749547.746,22.461,30.762,32.227,17.090,58.594
1643749547.750,27.344,29.297,31.738,19.043,31.738
1643749547.754,28.809,27.832,31.738,25.879,43.457
1643749547.758,29.785,26.367,28.320,30.273,124.512
1643749547.761,32.715,25.879,29.297,27.832,78.613
1643749547.765,29.297,27.344,30.762,15.137,21.484
1643749547.769,25.879,27.344,30.762,20.996,7.324
1643749547.773,24.902,29.785,28.809,32.227,13.672
1643749547.777,32.227,31.250,28.809,32.715,42.969
1643749547.781,28.809,30.273,31.250,30.273,-10.742
1643749547.785,22.949,32.227,32.715,31.250,-20.508
1643749547.788,22.461,33.203,34.668,39.062,19.043
1643749547.792,17.578,32.715,32.715,37.109,4.883
1643749547.796,21.484,28.809,30.273,28.320,-1.953
1643749547.800,17.090,29.297,30.762,22.949,-14.160
1643749547.804,20.020,32.227,30.762,29.297,6.348
1643749547.805,25.391,29.297,31.250,42.969,31.738
1643749547.809,26.855,32.715,28.809,34.668,-4.395
1643749547.813,28.320,33.691,30.762,18.555,-29.785
1643749547.817,20.996,30.762,31.738,20.020,-20.020
1643749547.821,24.414,33.203,29.297,27.832,51.758
1643749547.825,28.809,32.715,28.320,28.809,79.102
1643749547.829,24.902,28.320,26.855,21.973,76.660
1643749547.832,19.043,27.832,28.320,18.555,-8.789
1643749547.836,20.508,32.715,27.344,28.320,-14.648
1643749547.840,26.855,29.785,25.391,32.715,54.199
1643749547.844,28.320,27.344,30.273,27.832,55.176
1643749547.848,31.738,31.738,29.297,31.250,-41.992
1643749547.850,29.297,31.738,27.832,39.062,-33.203
1643749547.854,21.484,27.832,28.320,36.621,62.012
1643749547.858,19.043,31.738,26.367,21.973,0.000
1643749547.862,21.484,34.668,26.855,13.672,-41.504
1643749547.866,22.461,30.762,25.879,19.531,-40.039
1643749547.870,21.484,29.785,22.461,24.414,-8.789
1643749547.874,31.738,30.273,24.902,17.578,53.711
1643749547.877,29.785,30.273,25.879,3.418,23.926
1643749547.881,22.461,33.203,24.902,11.719,58.594
1643749547.885,36.621,33.203,27.832,30.762,65.430
1643749547.889,45.410,29.785,28.809,32.227,-3.906
1643749547.893,34.180,27.344,27.344,21.973,-13.184
1643749547.895,21.484,27.832,28.809,26.855,21.973
1643749547.899,13.672,28.809,30.762,42.480,62.500
1643749547.903,8.789,28.809,30.273,44.922,58.594
1643749547.907,12.207,28.809,30.273,35.156,6.348
1643749547.911,13.672,27.832,31.738,32.715,-25.879
1643749547.915,8.789,29.785,30.273,37.598,20.996
1643749547.919,16.113,30.762,30.762,33.203,60.547
1643749547.922,13.672,27.832,29.785,18.066,65.430
1643749547.926,10.254,26.367,29.785,8.789,29.785
1643749547.930,14.160,30.273,30.273,15.137,0.977
1643749547.934,11.230,32.227,26.855,20.508,66.895
1643749547.938,24.414,29.785,26.855,19.531,43.457
1643749547.955,33.691,30.762,25.879,13.672,38.086
1643749547.959,30.273,31.250,26.367,18.555,54.688
1643749547.963,30.762,27.832,26.367,29.297,28.320
1643749547.967,27.344,29.297,24.902,24.414,66.406
1643749547.971,25.879,31.250,25.879,13.184,40.039
1643749547.975,24.902,29.297,27.344,18.066,-41.992
1643749547.979,24.902,27.344,27.344,31.738,31.250
1643749547.982,24.902,28.320,26.367,28.320,64.453
1643749547.986,19.043,31.250,26.855,16.113,47.852
1643749547.990,18.555,30.762,30.762,15.137,19.043
1643749547.994,13.184,29.297,30.273,20.020,6.348
1643749547.998,18.555,28.809,27.832,28.809,39.062
1643749548.000,32.715,27.344,30.273,29.785,37.109
1643749548.004,30.762,26.367,31.250,16.602,17.090
1643749548.008,25.391,24.414,29.297,19.531,-2.930
1643749548.012,31.738,24.414,28.809,33.691,53.223
1643749548.016,29.785,26.855,28.809,27.344,83.496
1643749548.020,23.438,29.297,28.809,19.043,32.715
1643749548.024,15.625,32.715,28.320,19.531,-0.977
1643749548.027,4.883,35.645,24.902,20.020,36.621
1643749548.031,15.137,32.227,26.855,19.531,63.477
1643749548.035,25.391,30.273,31.738,15.625,40.527
1643749548.039,21.973,30.762,28.320,18.555,12.207
1643749548.043,26.855,29.297,27.344,22.461,71.289
1643749548.045,27.344,29.785,31.250,25.879,74.219
1643749548.049,21.484,28.320,30.762,22.461,-0.977
1643749548.053,30.273,31.250,29.785,21.484,18.066
1643749548.057,33.203,33.203,29.297,30.273,4.395
1643749548.061,29.785,29.297,31.738,39.062,14.648
1643749548.065,23.926,32.227,33.203,31.738,12.695
1643749548.069,22.949,31.250,33.203,22.949,-8.301
1643749548.072,29.297,25.391,35.156,33.203,17.578
1643749548.076,30.273,27.832,33.691,42.969,27.344
1643749548.080,33.691,32.227,32.715,36.133,64.941
1643749548.084,29.297,30.273,33.691,18.555,54.199
1643749548.088,26.855,31.738,31.738,21.484,-20.508
1643749548.090,27.344,33.203,29.297,33.203,13.672
1643749548.094,33.203,27.832,30.762,28.320,44.922
1643749548.098,36.133,26.855,30.762,21.973,8.789
1643749548.102,34.668,28.320,31.250,23.438,-17.578
1643749548.106,30.762,29.785,31.250,22.461,-7.812
1643749548.110,27.344,28.809,29.297,15.137,35.156
1643749548.114,19.043,29.785,28.320,9.277,45.898
1643749548.117,18.066,32.227,26.855,4.883,6.348
1643749548.121,24.414,28.809,30.762,14.160,9.766
1643749548.125,16.113,27.344,29.785,24.902,100.586
1643749548.129,17.578,26.367,26.367,18.066,59.570
1643749548.133,26.855,23.438,29.785,20.996,-7.324
1643749548.134,22.949,24.902,29.785,30.273,23.438
1643749548.138,20.996,26.855,29.297,35.645,60.059
1643749548.142,23.926,25.879,31.738,29.785,27.344
1643749548.146,24.414,27.344,32.715,12.207,-9.766
1643749548.150,21.973,26.367,33.691,18.066,38.574
1643749548.154,22.949,23.438,37.109,34.668,39.551
1643749548.158,27.832,23.926,34.180,36.133,61.523
1643749548.161,32.227,26.367,33.691,23.438,21.484
1643749548.165,29.297,29.785,34.180,15.137,-43.457
1643749548.169,19.043,28.809,31.250,25.879,9.277
1643749548.173,17.090,29.297,29.297,30.762,43.457
1643749548.177,19.531,30.762,28.320,25.391,20.996
1643749548.180,21.484,28.320,32.715,24.414,27.832
1643749548.184,28.809,29.297,36.133,29.297,48.340
1643749548.188,33.691,26.367,35.156,39.062,72.754
1643749548.192,26.855,23.438,35.156,36.621,119.141
1643749548.196,20.996,24.902,35.645,28.809,62.500
1643749548.200,16.602,25.879,38.574,33.691,9.766
1643749548.204,17.090,28.809,38.086,35.645,58.105
1643749548.207,23.438,34.668,34.180,35.156,33.691
1643749548.211,31.738,34.180,32.715,27.344,-7.812
1643749548.215,25.391,31.250,36.621,24.414,-13.184
1643749548.219,18.066,28.809,38.574,33.203,-4.883
1643749548.223,15.625,27.344,39.551,41.016,54.199
1643749548.226,15.137,27.344,37.598,37.598,31.250
1643749548.230,15.137,26.855,37.109,27.344,-2.930
1643749548.234,13.672,30.762,38.086,24.414,46.387
1643749548.238,21.484,30.762,36.621,30.273,109.863
1643749548.242,24.414,28.320,35.645,32.227,63.477
1643749548.246,28.809,31.250,34.668,26.855,-21.973
1643749548.250,28.809,32.715,34.668,29.297,21.484
1643749548.253,21.973,30.273,34.668,37.109,81.543
1643749548.257,26.367,31.250,32.715,32.715,69.824
1643749548.261,24.414,31.250,33.203,25.879,68.359
1643749548.265,20.996,27.832,30.762,27.344,45.898
1643749548.269,23.926,28.320,29.297,31.738,31.738
1643749548.270,28.320,28.320,29.297,30.762,38.086
1643749548.274,23.438,25.391,27.832,24.902,-11.230
1643749548.278,20.020,26.855,27.344,20.996,-31.738
1643749548.282,16.602,27.832,27.344,29.297,6.836
1643749548.286,21.973,27.344,24.902,36.621,42.480
1643749548.290,35.645,30.273,24.414,30.273,41.992
1643749548.294,27.344,28.320,27.832,19.531,51.270
1643749548.297,17.090,29.785,28.320,24.902,70.801
1643749548.301,25.879,28.809,28.320,34.668,61.523
1643749548.305,31.738,25.391,32.715,33.691,27.344
1643749548.309,20.020,27.344,32.715,30.273,33.203
1643749548.313,13.184,26.367,31.738,25.391,26.855
1643749548.331,13.672,27.832,34.180,27.832,-2.930
1643749548.335,20.996,26.855,35.156,27.832,54.688
1643749548.339,21.973,26.855,37.109,20.996,38.086
1643749548.343,26.855,28.320,33.203,25.391,26.855
1643749548.347,30.273,26.855,31.738,32.227,51.270
1643749548.351,29.297,25.391,36.133,28.320,45.898
1643749548.355,20.020,23.926,34.180,25.391,-3.906
1643749548.358,13.184,25.879,32.715,25.391,-53.711
1643749548.362,21.484,26.855,31.250,28.320,29.297
1643749548.366,28.320,27.832,32.715,28.809,87.891
1643749548.370,24.902,26.367,36.133,15.625,46.387
1643749548.374,12.695,27.832,32.227,10.254,50.293
1643749548.375,15.137,31.250,33.691,23.438,37.598
1643749548.379,20.996,30.273,35.645,32.227,37.109
1643749548.383,14.160,31.250,33.691,20.996,74.219
1643749548.387,10.742,32.715,31.738,9.766,67.383
1643749548.391,25.391,31.738,34.668,20.020,24.414
1643749548.395,30.762,29.297,36.621,34.180,14.648
1643749548.399,23.926,29.785,32.715,31.250,-4.883
1643749548.402,24.414,30.273,31.738,25.391,7.324
1643749548.406,24.902,31.738,31.250,24.414,-10.742
1643749548.410,19.531,30.762,33.203,24.414,20.996
1643749548.414,15.137,31.250,29.785,18.066,59.570
1643749548.418,20.020,31.738,27.344,7.324,1.465
1643749548.420,16.113,30.273,28.809,4.883,-6.836
1643749548.424,11.719,29.785,26.367,22.949,79.590
1643749548.428,15.625,29.297,25.391,29.297,63.477
1643749548.432,26.367,26.855,25.879,19.531,25.391
1643749548.436,28.320,26.855,26.855,18.555,-5.859
1643749548.440,25.391,27.344,25.879,21.484,-10.742
1643749548.444,27.344,25.391,24.902,31.250,87.402
1643749548.447,20.996,26.367,29.297,29.297,81.543
1643749548.451,14.160,28.320,33.203,19.531,11.230
1643749548.455,23.926,28.809,32.715,25.879,6.348
1643749548.459,28.320,28.320,32.227,31.738,82.520
1643749548.463,20.508,28.320,33.203,31.250,113.770
1643749548.480,25.391,29.297,33.203,28.320,50.293
1643749548.484,28.809,31.738,33.203,24.414,-1.465
1643749548.488,18.066,33.691,31.738,27.344,25.879
1643749548.492,20.020,31.250,31.738,27.344,58.105
1643749548.496,17.578,28.320,32.715,15.137,31.738
1643749548.500,17.090,24.414,32.715,13.672,1.953
1643749548.504,21.973,22.949,31.250,26.367,14.648
1643749548.507,19.531,23.926,30.762,32.715,25.879
1643749548.511,19.531,23.438,32.227,26.855,22.949
1643749548.515,17.578,22.949,30.273,22.949,27.344
1643749548.519,22.461,26.855,26.855,26.855,28.320
1643749548.523,34.180,28.809,25.879,25.391,56.641
1643749548.511,34.180,27.832,25.391,16.602,54.199
1643749548.515,26.855,28.320,24.414,5.371,35.156
1643749548.519,14.648,29.785,25.879,14.160,43.945
1643749548.523,13.672,32.227,25.879,27.832,44.434
1643749548.527,27.344,32.715,26.367,29.785,24.902
1643749548.531,26.855,31.250,26.855,28.320,8.301
1643749548.535,25.391,32.227,27.832,22.949,48.340
1643749548.538,23.926,31.738,26.855,25.879,62.500
1643749548.542,24.414,31.738,29.785,32.227,36.621
1643749548.546,32.715,31.738,31.250,28.809,-9.766
1643749548.550,34.668,31.250,30.273,29.785,-50.293
1643749548.554,30.273,31.250,32.227,33.203,24.902
1643749548.555,23.926,31.738,29.297,33.691,47.852
1643749548.559,30.762,28.809,27.344,37.109,18.555
1643749548.563,31.738,24.902,32.227,35.156,5.371
1643749548.567,22.949,25.879,32.227,35.645,-14.648
1643749548.571,24.902,25.879,30.762,45.410,7.812
1643749548.575,35.156,26.367,33.203,41.016,64.941
1643749548.579,32.227,27.832,33.203,24.414,26.855
1643749548.582,22.461,26.855,32.715,19.043,-30.762
1643749548.586,19.043,25.879,31.250,29.785,21.973
1643749548.590,18.066,25.879,31.738,33.691,38.086
1643749548.594,15.137,27.344,30.273,17.090,-4.395
1643749548.598,24.414,26.367,30.273,13.672,-24.414
1643749548.600,22.461,27.832,29.785,28.320,-2.930
1643749548.604,22.949,28.809,29.785,36.621,82.520
1643749548.608,28.809,28.320,31.250,24.414,34.668
1643749548.612,14.160,30.273,28.809,15.137,-18.066
1643749548.616,10.742,26.855,24.414,22.949,29.297
1643749548.620,11.719,26.367,26.367,26.855,32.715
1643749548.624,12.207,29.785,28.320,19.043,22.461
1643749548.627,14.160,30.273,24.414,7.812,-31.250
1643749548.631,29.297,28.320,21.484,15.625,-13.672
1643749548.635,35.645,28.320,19.531,25.391,36.133
1643749548.639,25.391,28.320,21.484,21.484,29.785
1643749548.643,23.926,26.855,22.949,14.160,16.113
1643749548.645,24.902,30.273,20.020,11.719,-32.715
1643749548.649,24.902,28.320,22.461,25.879,13.672
1643749548.653,17.578,26.855,22.949,24.902,76.660
1643749548.657,15.625,26.855,23.438,11.719,63.477
1643749548.661,20.020,27.832,24.902,17.090,50.293
1643749548.665,20.996,29.785,23.926,27.832,59.082
1643749548.669,26.855,30.273,24.414,33.691,67.383
1643749548.672,26.855,30.762,25.879,25.391,51.758
1643749548.676,22.461,30.273,25.879,21.973,12.695
1643749548.680,26.367,28.320,29.297,28.809,26.367
1643749548.684,26.855,27.832,33.691,33.691,61.523
1643749548.688,20.996,29.785,32.715,25.879,33.203
1643749548.706,19.043,31.250,30.273,14.648,-10.742
1643749548.710,16.602,30.762,31.250,20.996,-42.969
1643749548.714,21.973,32.227,30.762,25.391,-1.465
1643749548.718,27.344,30.273,26.855,23.438,62.012
1643749548.722,26.367,28.320,28.320,23.926,49.316
1643749548.726,17.578,31.738,30.762,23.926,2.930
1643749548.730,23.438,31.738,29.297,23.926,20.020
1643749548.733,32.227,31.250,28.320,27.832,76.172
1643749548.737,22.461,33.691,29.785,20.996,52.246
1643749548.741,21.973,34.668,30.762,13.672,29.297
1643749548.745,23.438,32.227,27.832,20.996,51.758
1643749548.749,16.113,31.738,24.902,24.902,48.340
1643749548.751,11.719,30.273,24.902,18.555,35.156
1643749548.755,18.555,28.320,28.320,13.184,0.977
1643749548.759,21.484,29.785,28.320,15.625,-8.789
1643749548.763,19.043,27.832,24.414,20.996,49.316
1643749548.767,8.789,23.926,21.973,18.066,68.359
1643749548.771,6.348,26.855,23.926,15.137,-26.367
1643749548.775,15.625,27.344,25.879,19.043,-5.859
1643749548.778,27.344,25.391,23.926,31.250,47.363
1643749548.782,28.809,26.855,25.879,26.855,73.730
1643749548.786,25.879,29.297,29.297,7.324,52.246
1643749548.790,15.137,29.785,28.809,5.371,7.812
1643749548.794,4.395,28.320,25.879,15.625,79.102
1643749548.796,10.742,30.273,27.344,24.414,73.242
1643749548.800,11.230,28.809,28.809,19.531,-18.066
1643749548.804,12.207,26.367,27.344,15.137,-23.926
1643749548.808,20.020,29.297,26.367,29.297,77.148
1643749548.812,28.320,31.738,25.879,39.551,81.543
1643749548.816,35.645,32.227,26.367,36.133,58.594
1643749548.820,31.250,33.691,26.855,26.855,57.129
1643749548.823,24.414,35.156,22.461,22.949,4.883
1643749548.827,35.645,37.598,22.461,35.156,34.668
1643749548.831,29.785,36.133,25.879,28.809,24.902
1643749548.835,18.555,35.645,24.414,15.137,-1.953
1643749548.839,23.926,32.715,26.855,22.949,23.926
1643749548.840,24.902,31.250,28.320,31.738,41.992
1643749548.844,29.297,35.645,26.367,37.109,65.430
1643749548.848,37.109,35.645,27.344,35.156,42.969
1643749548.852,36.621,33.691,30.273,32.227,8.789
1643749548.856,24.414,36.621,28.320,38.086,21.973
1643749548.860,29.785,37.109,27.832,40.527,56.641
1643749548.864,33.203,36.133,29.785,29.785,10.742
1643749548.867,20.996,34.180,27.344,19.043,-31.738
1643749548.871,22.461,31.738,29.297,27.344,-3.906
1643749548.875,25.391,33.203,29.785,31.738,48.828
1643749548.879,24.414,29.297,25.879,20.508,73.730
1643749548.883,22.461,27.832,24.902,8.301,-9.766
1643749548.885,27.832,30.762,26.367,17.578,-25.879
1643749548.889,30.762,27.832,26.855,28.809,21.973
1643749548.893,22.461,27.344,27.344,23.926,35.645
1643749548.897,10.742,29.785,27.832,13.672,-12.695
1643749548.901,20.508,28.809,25.879,15.625,5.371
1643749548.905,40.527,26.855,27.344,34.180,64.453
1643749548.909,43.457,27.832,28.320,37.598,68.359
1643749548.912,41.016,30.762,26.367,15.137,-2.930
1643749548.916,35.645,31.738,25.879,8.789,-54.199
1643749548.920,35.156,27.344,26.367,25.391,14.160
1643749548.924,35.156,26.367,28.320,32.715,58.594
1643749548.928,30.273,25.879,30.762,23.438,31.738
1643749548.930,28.809,22.461,31.738,25.879,28.809
1643749548.934,21.973,23.438,32.715,37.109,64.941
1643749548.938,30.273,22.949,32.715,45.410,86.914
1643749548.942,30.273,23.438,31.738,40.039,66.895
1643749548.946,15.625,27.832,30.762,27.832,-28.320
1643749548.950,11.719,28.320,28.320,27.344,-22.461
1643749548.954,8.789,26.855,27.832,31.250,89.844
1643749548.957,6.836,30.273,28.809,29.785,81.055
1643749548.961,20.020,28.809,27.832,22.949,17.090
1643749548.965,21.484,27.832,28.320,19.531,-12.207
1643749548.969,16.602,29.297,30.273,29.297,13.672
1643749548.973,23.438,27.344,31.250,33.691,61.035
1643749548.976,20.996,27.832,32.715,26.855,71.777
1643749548.980,23.926,27.344,33.203,27.344,-14.648
1643749548.984,25.879,29.297,31.738,31.250,-39.062
1643749548.988,26.855,34.180,29.785,29.785,46.875
1643749548.992,25.879,33.691,29.297,26.855,133.301
1643749548.996,25.879,32.715,31.250,20.996,101.074
1643749549.000,29.297,33.691,31.738,19.043,38.574
1643749549.003,27.344,33.203,31.738,29.297,63.965
1643749549.007,29.785,34.180,34.180,33.691,69.824
1643749549.011,24.414,35.156,33.203,25.391,21.484
1643749549.015,8.789,33.203,30.762,25.391,-10.254
1643749549.019,17.090,30.273,33.691,39.062,61.523
1643749549.020,28.809,31.250,32.227,35.156,45.898
1643749549.024,29.297,32.715,30.273,21.973,-32.227
1643749549.028,25.879,30.273,30.762,19.043,-23.926
1643749549.032,24.902,30.273,29.297,24.414,2.930
1643749549.036,26.367,30.762,29.785,32.227,36.621
1643749549.040,30.273,31.738,30.762,24.414,29.785
1643749549.044,26.855,33.203,31.738,8.789,-17.578
1643749549.047,18.066,29.785,31.738,11.230,-5.371
1643749549.051,20.508,26.855,30.273,17.090,57.617
1643749549.055,21.484,28.320,31.738,19.043,67.871
1643749549.059,19.043,25.391,29.785,17.090,79.102
1643749549.063,22.461,23.438,29.297,20.508,43.945
1643749549.079,17.090,25.879,31.250,33.203,49.805
1643749549.083,26.855,28.809,32.227,34.180,95.215
1643749549.087,39.062,29.785,33.203,28.320,17.578
1643749549.091,29.785,31.250,33.203,29.297,-49.805
1643749549.095,27.344,30.762,34.180,37.598,3.906
1643749549.099,24.902,28.809,33.691,34.668,28.809
1643749549.103,21.484,30.762,32.227,20.508,18.066
1643749549.106,23.926,29.785,29.785,19.043,-5.371
1643749549.110,28.320,28.809,29.297,31.250,0.977
1643749549.114,23.438,29.297,30.762,39.062,33.203
1643749549.118,22.949,29.785,31.250,32.715,-6.348
1643749549.122,28.320,26.855,30.273,28.809,4.395
1643749549.125,32.227,23.926,33.691,38.086,41.016
1643749549.129,44.922,30.273,33.691,41.016,66.406
1643749549.133,43.457,33.691,32.227,35.156,38.574
1643749549.137,28.320,29.297,34.180,27.344,21.484
1643749549.141,30.273,26.367,34.180,22.461,36.133
1643749549.145,27.344,27.832,33.691,31.250,25.391
1643749549.149,20.508,31.250,33.691,31.738,1.953
1643749549.152,25.879,29.785,34.668,18.555,-38.574
1643749549.156,32.227,27.832,35.156,20.508,-18.555
1643749549.160,32.227,28.809,36.133,36.133,8.301
1643749549.164,28.809,28.809,34.180,35.645,4.395
1643749549.168,29.297,29.785,29.785,26.367,-6.836
1643749549.170,23.438,29.785,31.250,21.973,25.879
1643749549.174,24.414,29.785,31.250,27.344,73.730
1643749549.178,20.996,31.738,26.367,24.414,72.754
1643749549.182,19.531,30.762,25.879,16.602,48.340
1643749549.186,30.762,26.855,28.320,22.949,13.672
1643749549.190,34.668,29.297,28.320,31.738,42.480
1643749549.194,50.293,29.785,26.855,43.945,73.730
1643749549.197,41.016,28.809,29.785,43.945,13.184
1643749549.201,18.555,30.762,32.227,29.785,0.488
1643749549.205,21.484,32.227,32.227,25.879,27.832
1643749549.209,20.996,32.227,30.762,38.086,60.547
1643749549.213,24.902,32.715,31.738,46.387,60.547
1643749549.219,32.715,34.668,30.273,31.738,31.738
1643749549.223,30.762,33.691,26.855,22.461,1.953
1643749549.227,19.531,32.227,25.879,32.227,0.000
1643749549.231,22.949,31.250,27.344,28.809,49.316
1643749549.235,22.461,28.809,29.785,20.020,-6.348
1643749549.239,10.254,30.762,30.762,19.531,-24.414
1643749549.243,12.695,30.762,28.809,27.832,21.973
1643749549.246,17.578,30.273,26.367,27.344,36.133
1643749549.250,17.090,31.250,24.902,10.254,20.996
1643749549.254,9.277,28.320,24.902,1.465,-29.297
1643749549.258,1.953,26.367,24.414,13.672,-11.719
1643749549.262,9.766,27.344,25.879,26.855,37.598
1643749549.260,13.184,27.344,28.320,25.391,41.016
1643749549.264,16.113,28.320,27.832,18.066,3.906
1643749549.268,25.391,30.762,27.832,21.484,3.906
1643749549.272,22.949,29.785,26.855,32.715,62.988
1643749549.276,16.113,28.320,24.902,34.668,52.246
1643749549.280,13.672,30.273,26.367,22.461,-6.348
1643749549.284,20.996,30.762,29.785,20.020,-34.668
1643749549.287,17.578,29.785,29.785,28.809,15.137
1643749549.291,14.648,30.762,32.715,30.273,65.918
1643749549.295,30.762,29.297,32.227,26.367,57.129
1643749549.299,37.598,25.879,29.785,18.555,26.367
1643749549.303,23.438,27.344,29.297,22.461,46.875
1643749549.305,14.648,27.832,29.297,34.180,62.012
1643749549.309,18.555,28.320,29.297,30.273,54.688
1643749549.313,18.555,29.785,28.320,22.949,29.297
1643749549.317,18.555,29.785,28.809,24.414,4.395
1643749549.321,23.926,32.715,27.832,25.879,36.621
1643749549.325,22.461,29.785,26.367,25.879,62.500
1643749549.329,21.484,26.367,29.785,19.531,27.832
1643749549.332,16.602,28.809,34.668,9.766,16.602
1643749549.336,19.043,28.320,34.668,19.531,67.871
1643749549.340,20.508,25.879,31.738,27.832,49.805
1643749549.344,18.555,27.344,32.715,16.602,27.344
1643749549.348,17.090,28.320,30.762,11.230,65.430
1643749549.350,11.719,28.320,28.809,18.555,32.227
1643749549.354,13.672,31.250,30.762,22.949,49.316
1643749549.358,18.555,30.762,30.273,16.113,51.758
1643749549.362,16.113,30.762,29.297,10.254,-41.992
1643749549.366,3.418,28.320,29.297,13.184,-26.367
1643749549.370,4.883,25.879,29.785,19.531,112.305
1643749549.374,26.855,29.297,31.738,21.973,110.352
1643749549.377,39.551,31.250,33.203,16.602,10.254
1643749549.381,23.438,32.227,30.762,18.066,20.508
1643749549.385,15.625,33.203,30.762,32.227,49.805
1643749549.389,21.973,34.180,29.297,31.250,41.504
1643749549.393,25.391,34.180,27.344,20.996,29.297
1643749549.394,18.066,34.668,28.320,21.484,27.832
1643749549.398,20.996,32.715,27.832,29.785,51.758
1643749549.402,20.508,32.227,28.320,28.809,83.496
1643749549.406,18.555,33.203,29.785,19.531,49.316
1643749549.410,21.973,34.180,28.809,15.625,-14.648
1643749549.414,13.672,33.203,27.832,25.391,-25.391
1643749549.418,10.254,31.250,28.809,32.715,49.805
1643749549.421,12.695,31.250,29.785,23.438,17.578
1643749549.425,18.555,30.762,30.273,20.020,-56.152
1643749549.429,23.438,32.227,29.297,29.785,17.090
1643749549.433,26.855,30.273,30.273,31.738,71.289
1643749549.437,27.344,28.809,29.785,20.996,11.230
1643749549.441,20.996,32.227,28.320,16.113,-5.859
1643749549.445,19.531,33.691,33.691,27.344,15.625
1643749549.449,27.344,31.738,35.645,40.527,32.227
1643749549.453,26.855,30.273,32.715,40.039,42.969
1643749549.457,27.832,30.273,31.250,29.297,4.395
1643749549.461,37.598,29.785,32.715,26.855,-0.977
1643749549.465,29.297,29.785,34.668,33.203,20.508
1643749549.468,20.996,30.273,33.203,34.668,47.852
1643749549.472,24.902,29.785,30.762,28.809,78.613
1643749549.476,28.320,33.203,31.250,21.973,41.016
1643749549.480,31.738,30.762,31.738,24.902,40.527
1643749549.484,24.902,29.785,33.203,29.297,35.156
1643749549.500,20.508,30.273,33.691,24.414,23.926
1643749549.504,28.809,30.762,32.227,21.484,46.875
1643749549.508,20.996,29.297,34.180,22.949,12.207
1643749549.512,13.672,26.855,33.691,29.785,-3.906
1643749549.516,16.113,28.320,33.203,24.902,28.809
1643749549.520,20.996,27.344,33.691,17.090,24.902
1643749549.524,25.391,26.855,31.738,23.438,54.688
1643749549.527,19.531,26.855,30.273,29.297,70.312
1643749549.531,23.438,23.926,31.738,28.320,20.020
1643749549.535,36.133,24.902,34.180,26.367,-6.836
1643749549.539,29.785,25.879,35.156,20.508,15.137
1643749549.543,15.137,25.879,33.691,20.020,21.484
1643749549.545,21.973,26.855,32.715,26.855,26.855
1643749549.549,23.438,27.344,31.738,19.043,9.766
1643749549.553,20.508,26.855,31.250,20.508,-56.641
1643749549.557,29.297,27.832,27.832,29.785,-23.438
1643749549.561,28.320,26.855,28.320,29.785,31.250
1643749549.565,27.832,26.855,32.227,19.531,11.719
1643749549.569,30.273,28.320,32.715,14.160,-5.859
1643749549.572,21.973,26.367,32.227,21.484,48.340
1643749549.576,17.578,28.320,31.250,25.879,81.055
1643749549.580,14.648,30.762,30.762,23.926,38.086
1643749549.584,14.648,29.785,27.832,19.043,-0.977
1643749549.588,17.090,29.297,27.344,26.367,-12.207
1643749549.590,23.926,29.297,26.367,40.527,10.742
1643749549.594,29.297,33.203,25.391,35.645,21.484
1643749549.598,25.391,33.691,25.879,23.438,29.785
1643749549.602,29.297,34.180,31.738,28.320,29.785
1643749549.606,28.809,32.715,35.156,34.668,41.016
1643749549.610,20.996,30.762,30.273,33.691,61.523
1643749549.614,26.855,31.250,27.832,31.250,41.992
1643749549.617,30.762,28.809,31.250,26.367,6.836
1643749549.621,24.414,27.832,30.762,26.855,29.785
1643749549.625,21.973,26.855,26.367,28.320,104.980
1643749549.629,21.973,26.855,28.809,26.855,61.523
1643749549.633,22.949,28.809,30.273,23.926,11.230
1643749549.634,19.043,30.273,28.320,21.484,-2.441
1643749549.638,32.227,28.320,30.273,32.227,-2.930
1643749549.642,29.785,26.367,31.738,34.668,51.758
1643749549.646,7.812,29.297,31.250,17.090,32.715
1643749549.650,17.090,30.762,29.785,14.160,-13.672
1643749549.654,34.180,28.809,28.809,26.367,51.270
1643749549.658,38.574,31.250,31.250,33.691,97.168
1643749549.661,30.762,35.156,31.738,24.902,31.738
1643749549.665,22.949,31.738,32.227,19.531,-22.949
1643749549.669,20.020,27.832,30.762,26.367,1.953
1643749549.673,18.555,28.320,30.762,32.715,23.926
1643749549.677,25.391,28.320,31.250,27.344,-24.414
1643749549.681,29.785,28.320,27.832,11.230,-4.395
1643749549.685,26.855,31.250,29.785,20.020,22.461
1643749549.689,29.297,32.227,32.715,44.434,31.738
1643749549.693,37.598,28.809,33.691,35.645,36.621
1643749549.697,36.621,27.344,32.227,18.066,-1.465
1643749549.701,25.879,29.297,32.227,24.414,-1.953
1643749549.705,23.438,28.320,35.156,33.203,41.992
1643749549.708,20.996,28.320,34.668,29.297,38.086
1643749549.712,21.973,29.297,29.785,16.113,-31.738
1643749549.716,25.879,29.297,25.391,14.648,-33.203
1643749549.720,24.902,30.273,26.367,30.273,18.066
1643749549.724,25.391,32.227,25.879,33.691,75.195
1643749549.725,25.391,33.203,25.391,20.508,109.375
1643749549.729,25.879,29.785,24.902,22.461,41.016
1643749549.733,33.691,30.273,23.926,28.809,5.371
1643749549.737,23.438,33.203,28.320,27.832,44.922
1643749549.741,18.555,31.738,30.273,24.902,7.812
1643749549.745,29.297,29.297,29.297,17.578,-25.879
1643749549.749,24.902,31.250,30.762,13.672,-25.879
1643749549.752,20.020,34.668,32.227,24.414,32.715
1643749549.756,23.926,31.250,30.273,22.461,43.457
1643749549.760,22.949,28.320,30.273,11.719,-5.859
1643749549.764,21.973,31.250,30.762,16.113,4.883
1643749549.768,25.879,32.227,29.297,26.855,23.438
1643749549.770,22.461,32.715,30.273,32.227,42.480
1643749549.774,20.020,31.250,30.273,21.973,55.664
1643749549.778,27.344,32.715,29.297,22.461,40.039
1643749549.782,30.762,35.645,29.785,38.086,14.160
1643749549.786,32.227,36.133,32.715,44.434,38.086
1643749549.790,36.133,35.156,34.180,33.691,30.273
1643749549.794,37.109,37.598,35.156,30.273,-2.441
1643749549.797,29.297,36.133,32.227,37.109,32.227
1643749549.801,26.367,31.738,29.785,40.039,76.172
1643749549.805,26.367,30.273,32.227,37.109,55.176
1643749549.809,25.391,29.297,31.738,26.367,-8.789
1643749549.813,32.715,30.273,29.785,24.902,20.020
1643749549.830,34.668,28.809,29.785,35.156,29.297
1643749549.834,27.832,26.855,28.809,30.273,40.039
1643749549.838,30.762,26.367,28.809,17.090,20.508
1643749549.842,25.879,24.902,30.273,20.996,-8.301
1643749549.846,13.672,22.949,31.738,29.297,55.664
1643749549.850,7.812,22.949,31.250,20.508,96.191
1643749549.854,7.324,23.926,32.715,8.789,38.086
1643749549.857,11.230,25.879,31.250,9.766,-6.348
1643749549.861,19.531,27.832,30.762,20.996,34.180
1643749549.865,24.414,27.832,32.227,28.809,69.336
1643749549.869,16.113,26.855,33.203,23.926,30.273
1643749549.873,12.695,29.785,35.156,20.996,-20.020
1643749549.875,18.555,32.227,34.668,26.367,-5.371
1643749549.879,15.625,30.273,30.762,31.738,17.090
1643749549.883,18.555,31.250,30.762,28.809,79.102
1643749549.887,22.949,30.273,31.738,25.391,64.453
1643749549.891,25.391,28.809,31.738,29.785,11.230
1643749549.895,31.738,31.250,33.691,38.086,27.832
1643749549.899,27.832,32.715,33.203,37.598,45.898
1643749549.902,30.762,31.250,31.738,32.715,62.500
1643749549.906,32.715,32.715,31.250,29.297,48.828
1643749549.910,30.273,33.691,32.227,28.320,74.219
1643749549.914,34.668,33.203,32.715,26.367,70.312
1643749549.918,41.504,33.203,29.785,20.508,39.551
1643749549.921,48.828,33.691,27.832,16.113,8.789
1643749549.925,46.875,34.668,26.855,23.926,24.414
1643749549.929,41.992,35.156,27.344,28.809,74.707
1643749549.933,45.898,37.598,30.762,21.484,19.531
1643749549.937,40.527,36.621,33.203,26.367,-42.480
1643749549.941,27.832,35.645,35.156,41.016,27.344
1643749549.945,20.996,34.180,36.621,49.805,55.664
1643749549.948,22.949,31.250,35.645,44.922,17.090
1643749549.952,18.555,31.250,36.133,34.668,52.246
1643749549.956,13.184,33.203,35.645,32.715,46.387
1643749549.960,13.672,33.203,33.691,36.621,11.719
1643749549.964,4.883,29.297,34.180,33.691,38.574
1643749549.965,4.395,33.203,33.203,19.043,22.949
1643749549.969,9.766,33.203,31.250,13.672,-32.715
1643749549.973,15.137,28.320,28.809,20.020,49.316
1643749549.977,15.137,29.785,30.273,20.508,71.777
1643749549.981,18.066,31.250,30.762,14.648,23.926
1643749549.985,23.438,29.297,29.297,11.230,2.930
1643749549.989,21.484,27.832,28.809,20.508,2.441
1643749549.992,24.902,31.250,28.809,31.250,47.363
1643749549.996,28.320,32.227,32.715,23.926,47.852
1643749550.000,21.484,29.297,30.762,16.113,-9.766
1643749550.004,21.973,30.762,28.809,19.043,17.090
1643749550.008,25.879,33.203,30.273,20.508,88.867
1643749550.010,18.555,34.668,30.273,20.996,102.539
1643749550.014,14.648,33.691,31.250,16.602,28.809
1643749550.018,18.555,33.203,30.762,14.160,55.176
1643749550.022,16.602,34.180,28.320,22.461,60.059
1643749550.026,21.484,33.691,28.809,24.414,6.348
1643749550.030,25.879,32.227,29.297,16.602,44.922
1643749550.034,26.367,33.691,25.879,15.137,39.551
1643749550.037,31.250,34.180,28.320,27.344,24.902
1643749550.041,34.180,34.180,30.762,33.203,36.621
1643749550.045,30.762,33.203,29.785,22.461,42.969
1643749550.049,27.344,28.809,32.227,20.996,39.062
1643749550.053,29.785,29.785,32.227,33.691,19.531
1643749550.055,32.227,35.156,29.785,39.062,16.113
1643749550.059,34.180,36.133,32.227,32.227,16.113
1643749550.063,31.250,33.691,34.668,25.879,5.859
1643749550.067,22.461,30.762,34.668,31.738,17.090
1643749550.071,21.484,28.809,33.203,40.039,35.645
1643749550.075,20.508,30.273,30.273,32.715,52.246
1643749550.079,27.344,31.250,31.738,24.902,13.184
1643749550.082,34.180,27.832,32.715,27.832,0.488
1643749550.086,24.902,25.879,30.762,29.785,36.621
1643749550.090,21.484,27.344,29.297,27.344,50.781
1643749550.094,30.762,28.320,30.762,20.996,-16.602
1643749550.098,30.273,28.809,30.273,16.113,-27.832
1643749550.100,22.461,31.738,27.344,22.949,56.152
1643749550.104,20.020,34.180,27.344,27.344,55.664
1643749550.108,21.484,34.180,27.832,18.066,-16.602
1643749550.112,31.250,33.691,28.320,14.160,-23.926
1643749550.116,29.785,34.668,27.344,20.508,5.859
1643749550.120,27.344,34.668,25.879,28.320,55.664
1643749550.124,31.250,35.156,27.832,20.508,75.195
1643749550.127,24.414,36.621,27.832,6.348,16.602
1643749550.131,21.484,35.645,24.902,8.789,19.043
1643749550.135,29.297,32.227,25.391,21.973,76.172
1643749550.139,33.203,32.715,24.902,23.438,65.430
1643749550.143,30.273,32.227,25.391,17.578,11.719
1643749550.146,22.949,29.785,26.855,20.020,0.977
1643749550.150,24.414,30.273,28.809,25.391,28.320
1643749550.154,33.203,29.297,29.297,30.762,101.074
1643749550.158,34.668,29.785,28.809,23.438,42.969
1643749550.162,26.855,29.785,26.855,16.602,-27.832
1643749550.166,24.414,29.785,25.879,27.344,23.926
1643749550.170,28.320,32.227,28.320,31.738,38.574
1643749550.173,31.250,32.227,28.320,26.367,15.137
1643749550.177,25.391,32.227,27.832,19.043,59.570
1643749550.181,19.531,31.250,32.227,26.367,57.129
1643749550.185,28.320,32.715,34.668,44.434,48.340
1643749550.189,27.832,33.203,33.691,35.156,73.730
1643749550.205,24.902,32.227,32.227,24.902,35.156
1643749550.209,24.902,29.785,33.203,30.273,-13.672
1643749550.213,19.531,30.273,33.203,36.621,37.598
1643749550.217,24.414,31.738,31.250,37.598,29.297
1643749550.221,26.855,29.785,29.785,26.855,-22.461
1643749550.225,16.113,30.762,31.738,18.555,-23.438
1643749550.229,6.836,33.691,30.762,20.508,16.602
1643749550.232,15.137,29.785,25.391,27.344,45.410
1643749550.236,17.090,27.832,25.391,15.625,14.160
1643749550.240,7.812,29.785,26.855,5.371,-0.977
1643749550.244,13.184,30.273,27.344,23.438,2.930
1643749550.248,12.207,31.738,25.879,34.668,25.879
1643749550.250,13.672,30.762,25.391,29.297,34.668
1643749550.254,16.113,28.809,27.832,26.855,27.344
1643749550.258,14.160,29.297,28.809,28.320,-0.977
1643749550.262,19.043,28.809,25.879,34.668,45.898
1643749550.266,26.367,26.367,26.367,34.668,113.770
1643749550.270,20.020,27.832,28.809,22.461,29.785
1643749550.274,13.184,30.762,26.855,18.555,-48.828
1643749550.277,20.996,31.250,25.391,27.344,-3.906
1643749550.281,23.438,31.738,26.367,31.250,46.387
1643749550.285,21.973,32.227,28.320,22.949,10.254
1643749550.289,27.344,31.738,28.320,21.484,-10.254
1643749550.293,26.855,32.227,24.414,31.738,4.883
1643749550.296,33.203,32.715,27.344,38.574,-3.418
1643749550.300,29.297,34.180,30.762,27.832,35.156
1643749550.304,19.043,36.621,30.273,24.414,24.414
1643749550.308,20.508,35.645,30.762,34.180,5.859
1643749550.312,18.555,32.715,31.738,36.133,20.508
1643749550.316,25.879,32.715,31.738,37.109,31.738
1643749550.320,25.391,35.645,31.250,28.320,-11.719
1643749550.323,25.879,34.180,30.273,25.391,28.809
1643749550.327,28.809,34.180,31.738,33.203,103.516
1643749550.331,31.738,36.133,34.180,30.273,41.992
1643749550.335,33.691,32.715,34.668,28.320,-17.090
1643749550.339,22.461,32.715,32.227,32.715,-10.742
1643749550.340,24.902,32.715,31.738,38.086,23.926
1643749550.344,29.785,30.273,34.180,41.016,56.152
1643749550.348,24.414,33.691,33.691,31.250,-4.395
1643749550.352,22.949,34.668,35.156,21.484,-30.273
1643749550.356,22.461,30.273,33.203,29.785,41.016
1643749550.360,19.531,27.344,30.762,28.320,46.875
1643749550.364,21.973,25.879,32.227,17.578,41.504
1643749550.367,19.531,28.320,31.250,12.207,18.555
1643749550.371,16.113,31.250,32.227,15.137,-2.930
1643749550.375,21.973,26.367,31.738,25.391,36.133
1643749550.379,20.508,24.902,28.320,25.391,66.895
1643749550.383,13.184,29.297,28.320,17.578,20.508
1643749550.385,10.742,29.785,26.855,18.066,17.090
1643749550.389,16.113,27.344,26.855,25.879,64.941
1643749550.393,26.855,29.297,28.320,26.855,57.617
1643749550.397,29.297,32.715,26.855,20.020,-13.184
1643749550.401,29.297,33.691,23.438,24.414,9.277
1643749550.405,25.879,33.203,23.926,32.715,81.543
1643749550.409,20.996,34.668,23.926,27.344,68.359
1643749550.412,24.414,36.133,24.414,16.113,-5.371
1643749550.416,25.391,36.621,23.926,6.348,-36.621
1643749550.420,30.762,39.062,21.484,17.090,-12.695
1643749550.424,30.273,39.551,23.926,30.762,47.363
1643749550.428,26.855,39.551,23.926,24.902,53.223
1643749550.430,27.832,41.504,25.879,23.926,20.020
1643749550.434,28.809,38.574,26.855,33.203,-5.859
1643749550.438,31.738,35.645,26.855,37.109,16.602
1643749550.442,35.645,37.109,34.180,33.691,46.875
1643749550.446,29.785,35.156,35.156,28.809,62.012
1643749550.450,21.484,32.227,32.227,32.715,45.410
1643749550.454,23.926,29.785,32.227,38.086,41.992
1643749550.457,23.926,31.250,32.715,29.297,41.504
1643749550.461,20.996,30.762,30.762,20.020,0.977
1643749550.465,17.090,28.809,28.809,19.531,8.789
1643749550.469,18.066,27.344,29.297,26.855,47.852
1643749550.473,20.996,25.879,29.297,27.344,69.336
1643749550.475,22.949,29.297,29.297,17.578,66.406
1643749550.479,32.227,30.762,32.227,22.949,2.441
1643749550.483,30.273,29.785,32.227,31.250,10.742
1643749550.487,17.578,31.250,31.250,28.809,31.250
1643749550.491,18.555,32.715,32.715,20.996,18.555
1643749550.495,21.973,33.691,32.227,17.578,22.949
1643749550.499,21.484,33.203,35.156,28.809,0.977
1643749550.502,20.508,35.156,34.668,36.133,46.387
1643749550.506,14.160,31.738,28.320,21.484,82.031
1643749550.510,16.602,26.855,28.320,11.719,25.879
1643749550.514,19.531,27.344,27.344,20.020,8.301
1643749550.518,23.438,28.809,25.879,29.785,41.504
1643749550.520,33.203,31.250,25.879,22.949,38.574
1643749550.524,19.531,30.273,27.344,14.160,42.969
1643749550.528,14.648,31.250,26.367,18.066,46.875
1643749550.532,25.391,32.715,24.414,20.996,61.523
1643749550.536,22.461,30.762,26.855,26.367,63.477
1643749550.540,25.879,30.762,27.832,24.902,23.438
1643749550.544,29.785,30.273,30.273,18.066,23.926
1643749550.547,27.344,30.273,31.250,27.832,12.207
1643749550.551,29.785,30.762,27.832,38.574,0.000
1643749550.555,39.062,32.227,29.297,32.227,35.156
1643749550.559,41.504,33.691,32.715,28.809,-13.672
1643749550.563,33.691,32.227,30.273,35.645,-44.922
1643749550.580,22.461,28.809,27.832,36.133,69.824
1643749550.584,22.949,27.832,32.715,32.227,61.523
1643749550.588,24.902,30.762,35.645,25.879,-30.762
1643749550.592,20.996,32.227,33.691,22.461,-6.836
1643749550.596,28.320,31.738,35.156,30.273,48.828
1643749550.600,25.391,33.691,36.133,30.273,52.246
1643749550.604,17.090,36.621,35.645,14.648,59.570
1643749550.607,23.926,31.738,36.133,14.160,29.297
1643749550.611,34.668,27.344,33.691,26.855,-2.441
1643749550.615,33.691,29.785,32.715,33.203,29.785
1643749550.619,22.949,32.227,35.156,25.391,38.086
1643749550.623,19.531,34.668,33.691,15.625,54.199
1643749550.656,27.344,33.691,32.227,22.949,24.902
1643749550.660,30.273,29.297,32.715,30.762,1.465
1643749550.664,19.043,29.785,32.715,30.273,13.184
1643749550.668,23.438,32.227,31.738,24.414,13.672
1643749550.672,33.691,32.715,29.297,23.926,70.801
1643749550.676,34.180,30.273,28.320,31.250,42.969
1643749550.680,30.273,27.344,27.832,25.879,41.504
1643749550.683,20.508,28.809,25.879,14.160,104.004
1643749550.687,12.207,29.785,25.879,14.648,55.176
1643749550.691,15.137,31.250,30.273,26.367,28.320
1643749550.695,18.555,34.668,29.785,31.738,85.938
1643749550.699,16.602,32.227,28.320,22.461,62.500
1643749550.670,13.184,27.832,30.762,16.602,26.367
1643749550.674,9.766,28.809,29.785,23.926,53.223
1643749550.678,11.230,32.715,28.809,28.320,81.543
1643749550.682,8.789,31.738,31.250,19.531,-16.113
1643749550.686,13.184,28.320,33.691,19.531,-31.738
1643749550.690,20.508,28.809,31.250,33.691,34.180
1643749550.694,30.273,30.762,30.273,43.457,46.875
1643749550.697,39.551,33.203,27.832,36.621,81.543
1643749550.701,31.250,34.668,26.855,30.273,42.969
1643749550.705,20.020,32.715,28.809,32.227,-25.391
1643749550.709,18.066,31.250,25.879,31.250,-6.348
1643749550.713,14.160,32.715,27.344,20.996,40.527
1643749550.715,19.531,34.180,29.785,16.602,27.344
1643749550.719,22.949,32.227,29.297,22.461,-20.996
1643749550.723,18.555,32.227,27.832,29.297,16.602
1643749550.727,18.555,31.250,28.320,36.621,78.125
1643749550.731,24.414,32.227,33.203,24.414,50.781
1643749550.735,20.996,36.133,31.250,7.324,3.418
1643749550.739,14.648,34.668,25.391,19.531,24.902
1643749550.742,23.926,33.691,26.367,35.645,24.414
1643749550.746,25.879,34.668,29.297,29.785,26.855
1643749550.750,25.391,33.203,28.809,23.438,46.875
1643749550.754,24.414,31.250,25.879,22.461,38.574
1643749550.758,20.020,30.273,25.879,26.367,59.082
1643749550.760,23.926,28.809,26.855,25.391,38.086
1643749550.764,22.461,28.809,26.855,18.066,-4.395
1643749550.768,9.277,28.809,26.367,19.043,18.555
1643749550.772,9.766,32.715,23.438,23.926,70.801
1643749550.776,20.020,32.227,20.996,24.902,60.059
1643749550.780,22.949,28.809,25.879,11.719,37.598
1643749550.784,15.625,27.344,28.809,7.812,-8.301
1643749550.787,3.418,26.855,26.367,13.184,-16.602
1643749550.791,0.977,31.738,26.855,10.742,22.461
1643749550.795,7.324,30.762,26.367,11.230,11.230
1643749550.799,17.090,30.762,28.809,13.184,-7.812
1643749550.803,16.602,32.715,31.250,18.066,58.594
1643749550.805,22.949,28.809,29.297,24.414,93.750
1643749550.809,30.273,26.367,31.250,22.949,-2.930
1643749550.813,17.578,26.855,31.738,10.254,-43.945
1643749550.817,20.020,27.832,32.227,16.602,28.320
1643749550.821,39.551,28.320,36.133,37.109,101.074
1643749550.825,38.574,27.832,36.133,31.250,99.609
1643749550.829,27.832,26.367,33.203,20.508,13.672
1643749550.832,26.367,25.391,32.227,23.438,-7.812
1643749550.836,21.484,24.902,30.762,25.879,61.035
1643749550.840,13.672,23.438,32.227,20.996,51.270
1643749550.844,14.648,22.949,34.668,17.578,2.930
1643749550.848,20.508,25.391,34.668,17.578,-7.812
1643749550.850,21.484,26.367,33.691,26.367,11.230
1643749550.854,22.949,24.902,32.227,38.086,44.434
1643749550.858,26.367,26.367,32.715,25.879,42.969
1643749550.862,21.973,29.785,31.250,10.742,38.086
1643749550.866,16.113,29.297,29.785,17.578,18.066
1643749550.870,24.414,28.320,32.227,30.762,30.762
1643749550.874,34.180,29.785,31.250,28.809,5.371
1643749550.877,23.438,28.320,28.320,15.137,-16.113
1643749550.881,14.648,28.320,26.855,22.949,45.898
1643749550.885,23.438,27.344,28.809,36.621,66.406
1643749550.889,18.555,27.344,29.785,33.203,52.734
1643749550.893,16.113,28.809,29.297,22.949,16.602
1643749550.911,27.832,26.855,29.785,21.484,21.973
1643749550.915,24.414,27.832,28.320,31.250,57.129
1643749550.919,24.902,30.273,28.809,33.691,27.344
1643749550.923,30.762,28.320,30.762,27.832,26.367
1643749550.927,23.926,28.320,30.762,21.973,44.434
1643749550.931,22.949,29.297,33.203,33.203,5.371
1643749550.935,21.973,32.227,35.645,34.668,50.781
1643749550.938,28.320,31.250,35.156,22.461,78.125
1643749550.942,28.320,27.832,33.203,16.113,33.203
1643749550.946,18.066,27.344,32.715,22.461,17.090
1643749550.950,14.648,26.855,34.668,34.180,49.316
1643749550.954,15.625,26.855,31.738,26.367,33.691
1643749550.955,14.160,27.832,29.297,17.090,-22.949
1643749550.959,19.531,29.297,30.762,23.926,-10.254
1643749550.963,23.926,31.738,28.320,31.738,36.621
1643749550.967,33.203,31.738,28.320,30.273,31.250
1643749550.971,48.828,33.691,28.809,20.508,-13.184
1643749550.975,51.270,33.203,30.762,19.531,-33.691
1643749550.979,43.457,30.273,31.738,27.832,29.297
1643749550.982,36.621,29.297,28.320,27.832,90.820
1643749550.986,28.320,31.250,30.762,28.320,49.316
1643749550.990,21.484,31.250,35.156,33.691,-15.625
1643749550.994,19.043,28.809,33.691,41.504,-24.902
1643749550.998,8.789,28.320,32.227,47.363,69.336
1643749551.000,6.836,27.832,33.203,39.062,67.383
1643749551.004,19.043,28.809,31.250,27.344,11.230
1643749551.008,17.090,29.297,31.250,24.414,9.277
1643749551.012,14.648,27.344,29.785,35.645,41.992
1643749551.016,22.461,27.344,28.809,29.785,68.848
1643749551.020,20.020,27.832,27.832,14.160,39.551
1643749551.024,27.832,27.344,28.320,25.391,38.086
1643749551.027,32.227,29.785,29.785,37.598,67.383
1643749551.031,26.367,29.785,30.762,38.086,24.902
1643749551.035,29.785,29.785,33.691,24.902,-33.691
1643749551.039,32.715,32.227,31.250,20.020,-15.137
1643749551.043,28.320,30.762,29.297,28.320,45.898
1643749551.045,24.902,32.227,32.227,30.762,82.031
1643749551.049,35.156,33.203,30.762,23.438,56.152
1643749551.053,36.621,32.715,29.297,14.160,1.465
1643749551.057,27.832,32.227,28.320,19.043,1.953
1643749551.061,27.344,28.809,26.855,31.738,58.105
1643749551.065,22.461,28.320,28.809,25.879,26.367
1643749551.069,22.461,30.273,31.738,18.066,0.488
1643749551.072,28.320,28.809,32.227,28.809,34.668
1643749551.076,28.809,28.320,34.180,31.738,29.785
1643749551.080,23.926,30.762,33.691,24.414,5.859
1643749551.084,34.180,30.273,31.250,21.973,-17.090
1643749551.088,44.434,28.809,27.832,26.367,-38.086
1643749551.090,27.344,30.762,26.367,37.109,35.156
1643749551.094,12.207,33.203,27.344,34.180,81.543
1643749551.098,14.648,33.691,27.344,20.508,22.461
1643749551.102,20.996,34.180,27.832,14.648,21.484
1643749551.106,18.066,31.250,27.344,20.020,47.363
1643749551.110,20.020,28.809,26.855,21.973,64.941
1643749551.114,21.973,27.344,29.785,20.996,66.895
1643749551.117,18.066,24.902,32.227,22.949,33.691
1643749551.121,15.625,26.367,31.738,31.738,12.207
1643749551.125,11.719,29.785,28.809,34.668,26.855
1643749551.129,10.254,31.250,26.367,26.367,25.879
1643749551.133,17.090,32.227,29.785,21.973,46.387
1643749551.136,19.043,31.250,28.809,23.926,72.754
1643749551.140,19.531,29.297,27.344,31.250,77.148
1643749551.144,20.020,27.344,29.297,27.344,36.621
1643749551.148,26.367,27.832,29.297,22.461,-14.648
1643749551.152,35.156,27.344,30.762,29.785,-17.578
1643749551.156,20.996,25.879,28.809,32.715,43.945
1643749551.160,18.555,25.391,27.344,29.785,57.129
1643749551.163,27.344,27.832,28.320,20.996,-3.906
1643749551.167,24.414,29.297,27.832,17.090,-51.758
1643749551.171,27.344,26.855,27.344,25.391,-19.043
1643749551.175,22.461,27.344,26.855,27.832,82.520
1643749551.179,17.578,28.320,26.855,17.578,83.008
1643749551.180,21.973,30.762,26.855,13.184,17.090
1643749551.184,18.066,34.180,24.902,21.484,5.371
1643749551.188,20.020,32.715,23.438,30.273,58.105
1643749551.192,26.367,33.203,24.902,26.855,80.078
1643749551.196,30.762,37.109,26.855,20.020,9.277
1643749551.200,30.273,33.691,29.297,22.949,-3.418
1643749551.204,29.785,30.273,30.762,30.762,64.453
1643749551.207,31.250,31.250,31.250,26.855,28.320
1643749551.211,28.320,29.785,32.227,21.484,-26.367
1643749551.215,24.414,29.297,31.738,24.902,42.969
1643749551.219,23.926,31.250,32.227,33.691,66.406
1643749551.223,21.973,29.785,32.715,36.133,49.316
1643749551.224,21.973,31.250,32.715,26.855,27.832
1643749551.228,30.273,30.762,33.203,23.438,-51.758
1643749551.232,33.203,29.785,31.250,27.344,-24.902
1643749551.236,20.508,34.180,25.879,27.344,52.246
1643749551.240,15.625,34.668,26.367,21.484,40.527
1643749551.244,20.996,33.691,28.809,19.531,-10.254
1643749551.248,22.461,35.645,30.762,30.273,-10.254
1643749551.251,25.391,36.133,30.273,34.180,54.199
1643749551.255,33.203,34.180,26.367,29.297,39.551
1643749551.259,34.668,31.738,26.855,26.367,20.996
1643749551.263,30.273,30.273,28.809,30.273,5.859
1643749551.267,28.320,27.832,29.297,35.156,25.391
1643749551.270,24.902,26.367,27.832,28.320,62.012
1643749551.274,24.902,27.344,27.344,22.949,23.926
1643749551.278,23.926,26.855,28.320,22.461,-1.465
1643749551.282,22.461,26.367,25.879,26.367,-11.719
1643749551.286,30.273,28.320,26.367,32.715,66.895
1643749551.290,27.344,29.297,26.367,23.438,69.336
1643749551.294,28.809,27.832,28.809,16.602,-45.410
1643749551.297,26.367,27.344,28.320,27.832,-8.789
1643749551.301,25.879,25.879,26.855,35.645,95.215
1643749551.305,29.297,26.855,31.738,25.391,51.758
1643749551.309,26.367,27.832,32.227,15.625,18.555
1643749551.313,22.949,25.879,29.785,20.020,41.992
1643749551.316,30.273,26.855,25.879,33.203,84.473
1643749551.320,28.320,28.809,28.809,28.809,115.723
1643749551.324,25.879,26.367,30.273,19.531,62.988
1643749551.328,28.809,22.461,26.855,23.926,7.812
1643749551.332,16.602,22.461,27.344,29.297,48.340
1643749551.336,19.043,27.344,29.297,28.809,62.988
1643749551.340,21.973,30.273,30.273,14.648,17.090
1643749551.343,14.648,28.320,30.273,14.160,-8.789
1643749551.347,16.602,31.250,28.320,26.367,-9.766
1643749551.351,21.973,33.203,25.391,23.926,44.922
1643749551.355,32.715,30.273,26.367,18.555,78.125
1643749551.359,30.273,31.250,30.273,22.949,1.953
1643749551.375,20.508,33.203,31.738,25.879,29.297
1643749551.379,25.391,28.320,35.645,26.855,117.188
1643749551.383,28.809,26.367,38.086,30.762,78.613
1643749551.387,24.414,27.344,38.086,29.297,9.277
1643749551.391,17.578,26.855,38.574,25.391,-20.020
1643749551.395,14.648,27.832,36.621,33.203,3.906
1643749551.399,16.113,27.832,34.668,31.738,28.809
1643749551.402,20.508,26.855,32.227,21.973,24.414
1643749551.406,23.926,27.344,32.715,21.973,-24.902
1643749551.410,27.344,26.855,34.668,31.738,25.391
1643749551.414,26.367,26.855,33.691,35.156,58.105
1643749551.418,22.949,27.344,34.668,27.344,16.113
1643749551.420,23.438,26.367,35.156,24.902,3.418
1643749551.424,26.367,25.391,36.133,29.785,28.809
1643749551.428,24.414,26.855,38.086,35.156,98.145
1643749551.432,17.578,25.879,41.016,30.273,60.547
1643749551.436,17.578,26.855,41.992,23.438,-4.883
1643749551.440,22.461,28.809,39.062,28.809,10.254
1643749551.444,19.531,27.832,36.133,30.273,50.781
1643749551.447,17.090,28.809,35.156,17.578,36.621
1643749551.451,26.367,28.809,34.668,4.395,-12.695
1643749551.455,28.320,28.809,32.715,9.766,-39.551
1643749551.459,20.020,31.250,27.344,19.043,22.949
1643749551.463,19.043,30.762,24.902,17.578,59.570
1643749551.465,19.531,30.762,25.391,18.555,-4.395
1643749551.469,21.484,31.738,25.391,22.461,45.898
1643749551.473,28.809,30.762,26.855,29.785,85.449
1643749551.477,29.297,30.273,28.809,32.227,49.316
1643749551.481,33.203,30.273,29.785,26.855,-5.859
1643749551.485,26.855,32.227,30.273,19.531,-22.949
1643749551.489,16.602,33.203,30.762,17.090,14.160
1643749551.492,16.602,31.738,25.879,20.508,50.781
1643749551.496,13.672,30.762,25.391,11.719,64.941
1643749551.500,13.672,28.809,28.320,8.789,28.809
1643749551.504,14.648,27.832,29.297,19.531,1.465
1643749551.508,14.160,27.832,30.273,25.391,66.895
1643749551.510,15.625,29.297,30.762,19.531,74.219
1643749551.514,18.066,29.785,32.227,15.137,-8.301
1643749551.518,20.508,29.785,32.227,19.043,-46.387
1643749551.522,28.809,31.738,28.809,31.250,-11.230
1643749551.526,29.785,30.762,24.902,31.250,55.176
1643749551.530,21.973,31.250,25.391,22.949,36.621
1643749551.534,23.926,30.273,32.715,28.320,4.395
1643749551.537,23.438,30.762,36.621,37.109,43.945
1643749551.541,23.926,30.273,33.203,30.273,63.965
1643749551.545,21.484,27.344,29.785,22.461,43.457
1643749551.549,15.137,25.879,31.250,26.367,-4.395
1643749551.553,16.113,27.832,32.227,27.832,22.949
1643749551.555,18.066,28.320,30.762,26.855,73.242
1643749551.559,22.461,26.367,26.855,21.973,77.637
1643749551.563,26.367,27.344,28.320,18.066,66.406
1643749551.567,31.250,28.809,28.809,28.809,38.086
1643749551.571,32.715,27.832,27.832,34.668,36.621
1643749551.575,24.902,25.879,29.785,26.855,26.367
1643749551.579,21.973,28.320,27.344,21.973,35.645
1643749551.582,16.602,32.227,26.855,23.926,23.926
1643749551.586,14.160,31.250,24.902,24.902,-1.953
1643749551.590,33.691,28.809,24.414,26.367,46.875
1643749551.594,30.273,31.250,25.391,19.531,11.719
1643749551.598,18.555,31.250,25.879,18.066,-32.715
1643749551.601,21.484,27.344,26.855,29.785,22.461
1643749551.605,23.438,29.297,27.832,33.203,77.637
1643749551.609,25.391,30.273,32.227,25.879,51.758
1643749551.613,26.367,24.414,33.691,16.602,-19.043
1643749551.617,21.973,25.391,31.250,20.996,0.977
1643749551.621,19.043,30.762,33.203,30.273,55.176
1643749551.625,28.809,33.691,41.992,26.855,41.016
1643749551.628,27.344,33.203,46.387,20.508,-46.387
1643749551.632,21.973,43.945,44.922,24.902,-46.875
1643749551.636,14.160,43.945,50.781,24.902,50.293
1643749551.640,13.672,31.250,47.852,20.020,93.750
1643749551.644,11.719,36.621,41.504,7.812,65.918
1643749551.645,-11.719,38.574,43.457,-11.230,43.457
1643749551.649,-25.879,49.805,57.617,-10.254,35.645
1643749551.653,-38.086,61.035,64.941,-22.461,24.902
1643749551.657,-67.871,59.570,58.105,-65.918,32.715
1643749551.661,-77.637,70.801,69.336,-80.566,-2.441
1643749551.665,-86.426,85.938,72.266,-83.984,5.371
1643749551.669,-112.305,87.402,70.312,-112.793,70.801
1643749551.672,-115.723,90.332,75.684,-123.535,54.688
1643749551.676,-119.141,92.773,69.336,-125.488,39.551
1643749551.680,-133.789,87.402,77.148,-127.930,29.297
1643749551.684,-140.625,88.867,82.520,-123.047,34.668
1643749551.688,-141.602,91.309,71.777,-131.348,40.039
1643749551.705,-129.883,90.332,71.289,-129.395,46.387
1643749551.709,-119.141,92.773,81.055,-116.699,58.594
1643749551.713,-125.488,88.379,77.637,-116.699,35.645
1643749551.717,-120.605,80.078,70.312,-111.816,0.977
1643749551.721,-112.305,85.938,72.754,-104.980,30.762
1643749551.725,-114.746,92.773,77.148,-108.398,76.172
1643749551.729,-123.047,85.938,74.219,-110.840,63.965
1643749551.732,-120.605,77.637,62.500,-109.863,31.250
1643749551.736,-101.562,80.078,63.477,-105.469,48.828
1643749551.740,-85.449,78.613,67.383,-97.168,32.227
1643749551.744,-81.055,80.566,64.453,-83.984,16.113
1643749551.748,-80.078,79.102,64.453,-76.172,101.562
1643749551.750,-70.312,67.871,64.453,-74.707,62.500
1643749551.754,-63.477,69.336,64.453,-77.148,-16.602
1643749551.758,-53.711,75.195,61.523,-58.105,-38.086
1643749551.762,-59.570,67.871,55.664,-51.758,16.113
1643749551.766,-57.129,60.059,56.152,-53.711,83.008
1643749551.770,-50.293,58.594,65.430,-48.340,15.625
1643749551.774,-55.176,55.176,62.988,-50.293,-2.930
1643749551.777,-39.062,57.617,52.246,-25.879,41.992
1643749551.781,-37.109,55.176,55.176,-20.508,51.270
1643749551.785,-36.133,45.410,61.035,-32.227,29.785
1643749551.789,-20.020,50.781,60.059,-25.391,1.465
1643749551.793,-23.438,49.805,62.500,-13.184,15.625
1643749551.795,-32.227,42.480,62.500,-12.695,52.734
1643749551.799,-29.785,42.480,62.988,-17.090,34.180
1643749551.803,-23.926,40.039,58.594,-15.137,-50.293
1643749551.807,-21.973,37.109,53.711,-11.719,-8.789
1643749551.811,-10.742,40.039,51.758,-5.859,52.734
1643749551.815,5.371,41.504,49.805,-5.859,46.387
1643749551.819,3.906,37.109,52.734,-9.277,21.484
1643749551.822,-2.441,32.227,51.758,1.465,0.488
1643749551.826,5.371,33.691,45.410,19.531,41.992
1643749551.830,22.461,32.227,40.039,28.809,87.891
1643749551.834,48.828,27.344,34.180,33.691,74.707
1643749551.838,65.918,22.461,32.227,53.711,23.926
1643749551.841,67.383,17.090,28.320,76.660,42.480
1643749551.845,75.195,11.719,23.438,86.426,52.734
1643749551.849,91.797,5.371,19.043,85.938,22.949
1643749551.853,100.098,2.441,14.648,91.309,2.930
1643749551.857,90.332,0.977,10.254,103.516,37.598
1643749551.861,100.586,-3.906,8.301,110.840,62.988
1643749551.865,120.605,-8.789,9.277,112.793,16.113
1643749551.868,114.258,-10.742,8.301,115.234,-22.949
1643749551.872,111.816,-10.742,5.859,121.582,20.020
1643749551.876,116.699,-11.230,1.953,123.535,52.246
1643749551.880,121.582,-12.207,0.000,118.164,8.301
1643749551.884,121.094,-13.672,-0.977,111.816,-17.578
1643749551.885,116.211,-13.672,-0.488,122.070,-1.953
1643749551.889,124.512,-11.719,-0.488,130.859,54.199
1643749551.893,131.348,-10.254,0.488,127.930,66.406
1643749551.897,145.020,-9.277,4.395,127.441,9.277
1643749551.901,143.555,-9.766,3.906,132.812,48.340
1643749551.905,132.812,-11.719,4.395,142.578,20.996
1643749551.909,126.465,-12.695,5.859,139.648,0.488
1643749551.912,118.164,-11.230,6.836,122.070,-16.113
1643749551.916,110.840,-11.719,6.348,111.328,-52.734
1643749551.920,98.145,-13.184,4.883,113.281,30.762
1643749551.924,89.355,-10.742,2.930,116.211,46.875
1643749551.928,87.891,-6.348,0.977,108.398,6.836
1643749551.930,98.145,-5.371,1.953,99.609,-2.441
1643749551.934,105.469,-5.371,-0.977,102.539,-2.441
1643749551.938,98.145,-4.395,-3.906,105.957,40.527
1643749551.942,99.121,-1.465,-0.977,102.539,49.316
1643749551.946,102.539,0.488,-0.977,96.191,25.391
1643749551.950,95.703,-0.977,-2.930,99.121,64.941
1643749551.954,83.984,1.953,0.977,103.516,82.031
1643749551.957,83.008,3.418,0.977,104.004,48.340
1643749551.961,88.379,0.488,-2.930,95.703,31.250
1643749551.965,89.355,-0.488,-4.395,86.914,31.250
1643749551.969,95.215,3.418,-2.930,93.262,41.016
1643749551.973,80.566,4.883,-2.441,88.379,70.801
1643749551.975,67.871,3.418,-4.395,72.266,28.320
1643749551.979,74.219,5.859,-2.930,68.359,1.953
1643749551.983,74.707,8.789,-0.488,77.148,40.039
1643749551.987,73.242,12.207,-2.441,75.684,46.387
1643749551.991,73.242,15.137,-0.977,60.547,12.695
1643749551.995,78.613,14.648,0.977,59.082,-11.230
1643749551.999,83.008,18.066,-0.488,65.430,-11.230
1643749552.002,82.520,18.555,-1.953,69.824,38.574
1643749552.006,82.031,14.648,-0.488,68.848,53.711
1643749552.010,81.055,17.578,4.395,66.895,24.902
1643749552.014,74.219,18.555,8.789,81.543,46.387
1643749552.018,65.430,18.555,8.789,97.168,62.500
1643749552.035,63.965,18.555,12.695,96.191,22.949
1643749552.039,66.895,19.043,16.602,80.566,8.789
1643749552.043,58.105,23.438,18.066,73.242,-14.648
1643749552.047,60.059,21.484,20.020,83.496,-6.836
1643749552.051,64.453,18.555,19.531,84.473,48.340
1643749552.055,59.082,21.484,18.066,74.219,4.395
1643749552.059,55.176,23.926,20.508,65.430,17.578
1643749552.062,54.199,22.949,22.461,67.383,35.645
1643749552.066,58.105,21.484,18.555,70.312,20.508
1643749552.070,57.617,24.414,21.973,64.941,25.879
1643749552.074,46.875,24.414,27.344,60.059,-2.441
1643749552.078,41.504,20.996,26.367,52.246,33.691
1643749552.066,37.598,21.973,25.391,51.270,79.102
1643749552.070,39.551,22.949,25.879,50.293,74.219
1643749552.074,37.109,20.020,27.832,37.598,-0.488
1643749552.078,28.809,19.531,25.879,30.273,10.254
1643749552.082,29.785,19.043,23.438,35.645,101.562
1643749552.086,22.949,18.555,27.344,33.203,72.754
1643749552.090,31.250,20.508,28.809,25.879,6.836
1643749552.093,39.551,21.484,24.414,29.297,14.648
1643749552.097,27.344,19.043,23.926,37.109,86.914
1643749552.101,25.879,23.438,28.809,36.621,134.766
1643749552.105,33.203,26.855,30.762,24.902,56.641
1643749552.109,26.855,22.949,26.855,17.578,-34.668
1643749552.125,20.020,22.461,26.367,25.879,-20.020
1643749552.129,22.949,23.438,26.855,38.574,51.758
1643749552.133,28.320,23.438,24.902,31.738,60.059
1643749552.137,28.809,23.926,24.414,17.578,14.160
1643749552.141,28.320,27.832,25.391,25.391,-29.785
1643749552.145,35.156,29.785,25.879,41.504,-16.113
1643749552.149,32.227,31.738,27.832,39.551,8.789
1643749552.152,32.227,32.227,27.832,28.320,-19.531
1643749552.156,49.316,29.785,29.785,35.156,-79.590
1643749552.160,49.805,33.691,31.738,42.969,-7.324
1643749552.164,30.273,35.156,28.809,31.738,33.203
1643749552.168,32.227,31.250,28.809,21.484,25.391
1643749552.170,44.922,31.250,32.227,18.066,52.246
1643749552.174,41.016,31.250,33.203,24.902,53.223
1643749552.178,23.926,31.250,31.250,34.668,57.617
1643749552.182,21.973,31.738,30.273,32.715,52.246
1643749552.186,37.598,30.762,31.250,30.762,55.176
1643749552.190,34.668,29.785,31.250,38.574,50.781
1643749552.194,34.180,33.203,29.785,42.969,34.180
1643749552.197,45.898,34.180,29.785,38.086,9.766
1643749552.201,43.945,33.691,32.227,22.949,-10.254
1643749552.205,43.945,34.668,31.738,19.531,8.301
1643749552.209,38.086,31.738,28.320,22.949,78.125
1643749552.213,38.574,30.762,27.344,17.578,79.590
1643749552.215,37.109,30.762,27.344,10.742,51.270
1643749552.219,21.973,27.832,28.809,12.695,27.344
1643749552.223,22.461,26.855,27.832,25.879,41.504
1643749552.227,26.367,29.297,29.297,28.809,89.844
1643749552.231,31.250,29.785,31.250,20.508,45.410
1643749552.235,35.645,27.344,30.762,24.414,-2.930
1643749552.239,38.574,25.879,27.832,29.297,2.441
1643749552.242,33.691,25.879,24.902,27.344,69.336
1643749552.246,25.391,27.832,28.320,17.090,85.449
1643749552.250,32.227,30.273,30.273,11.719,17.578
1643749552.254,30.762,25.391,30.273,19.043,-8.301
1643749552.258,20.020,21.973,30.273,24.902,45.410
1643749552.260,16.602,24.902,32.715,28.809,56.641
1643749552.264,16.113,25.879,32.227,23.438,6.836
1643749552.268,15.137,26.367,30.273,16.602,-29.785
1643749552.272,16.113,26.855,30.762,26.855,-24.902
1643749552.276,20.996,28.320,29.785,29.785,10.742
1643749552.280,26.855,27.344,30.273,21.484,18.555
1643749552.284,31.738,25.391,31.738,24.414,33.691
1643749552.287,31.250,29.297,31.738,38.086,50.781
1643749552.291,18.555,28.809,32.715,38.574,34.668
1643749552.295,20.996,27.344,32.227,26.367,4.883
1643749552.299,18.066,28.320,27.832,19.043,-28.809
1643749552.303,10.742,26.855,30.762,26.855,17.578
1643749552.306,16.602,25.879,35.156,34.668,72.754
1643749552.310,19.043,25.391,34.668,28.320,25.391
1643749552.314,28.320,26.367,36.133,24.902,-13.672
1643749552.318,29.785,28.320,35.156,29.297,-11.230
1643749552.322,24.902,27.832,33.203,32.715,63.965
1643749552.326,24.902,29.785,31.738,29.297,90.820
1643749552.330,23.438,28.320,32.715,22.461,27.832
1643749552.333,23.438,25.391,35.645,28.320,-3.418
1643749552.337,20.508,26.855,31.738,35.645,29.785
1643749552.341,13.184,22.949,30.762,29.297,81.055
1643749552.345,10.254,22.949,29.785,17.090,26.855
1643749552.349,13.672,25.391,27.832,20.508,-20.508
1643749552.350,18.555,23.438,30.273,28.809,7.812
1643749552.354,17.578,24.414,31.738,25.879,43.945
1643749552.358,17.090,26.367,31.250,20.020,27.832
1643749552.362,21.973,26.855,31.250,21.973,-26.367
1643749552.366,22.949,26.855,29.297,32.715,-10.254
1643749552.370,20.020,26.367,31.250,33.691,44.922
1643749552.374,12.207,26.367,33.691,30.762,48.828
1643749552.377,9.277,26.855,32.227,27.344,61.035
1643749552.381,20.020,27.344,28.809,25.391,48.828
1643749552.385,32.715,27.344,29.785,32.715,54.199
1643749552.389,32.227,28.809,31.250,29.785,47.363
1643749552.393,25.391,32.715,29.785,17.090,-24.902
1643749552.394,24.414,29.297,28.320,17.090,-9.277
1643749552.398,38.086,29.297,29.785,35.156,27.832
1643749552.402,31.738,35.156,30.762,37.109,15.137
1643749552.406,23.438,32.227,28.320,25.391,16.602
1643749552.410,22.949,32.227,27.832,24.902,36.133
1643749552.414,18.066,31.738,25.879,28.320,46.875
1643749552.418,21.484,29.297,26.855,28.320,64.941
1643749552.421,21.484,30.273,28.809,23.926,46.875
1643749552.425,19.043,29.785,28.320,17.578,-4.395
1643749552.429,24.902,26.855,29.297,22.461,13.184
1643749552.433,32.227,26.855,33.203,29.297,64.941
1643749552.437,38.574,26.855,33.691,31.738,43.457
1643749552.455,31.250,27.832,32.227,31.738,13.184
1643749552.459,28.320,32.715,30.273,23.438,-0.977
1643749552.463,20.508,34.180,24.414,25.879,47.363
1643749552.467,16.113,33.203,24.902,21.973,83.984
1643749552.471,20.996,31.738,29.297,15.625,-25.391
1643749552.475,14.160,31.738,30.273,20.996,-28.320
1643749552.479,30.273,28.809,30.273,33.691,24.414
1643749552.482,32.227,27.832,33.203,35.645,31.250
1643749552.486,16.113,30.273,33.691,19.043,67.383
1643749552.490,22.949,30.762,33.203,19.531,17.578
1643749552.494,32.227,31.250,33.203,35.156,-28.320
1643749552.498,33.691,30.762,29.297,40.039,38.574
1643749552.500,32.715,32.715,28.320,32.227,12.207
1643749552.504,34.668,34.180,31.738,23.926,23.438
1643749552.508,28.809,33.691,31.738,22.949,67.871
1643749552.512,19.043,32.715,30.273,28.809,61.035
1643749552.516,18.555,33.203,28.320,25.391,69.824
1643749552.520,25.879,32.715,30.273,24.902,43.457
1643749552.524,35.645,29.297,32.715,27.832,-18.066
1643749552.527,28.809,29.785,29.785,28.809,7.812
1643749552.531,23.438,30.762,29.785,31.250,27.344
1643749552.535,24.902,33.691,29.785,20.508,11.230
1643749552.539,19.043,34.180,26.855,20.020,26.367
1643749552.543,22.949,30.273,28.320,37.598,7.812
1643749552.544,26.367,31.738,31.738,35.645,36.621
1643749552.548,22.461,31.738,33.203,20.996,49.316
1643749552.552,24.414,33.691,32.715,23.438,20.996
1643749552.556,25.879,35.156,30.762,36.133,45.898
1643749552.560,20.996,31.738,28.320,34.180,78.613
1643749552.564,22.949,31.738,26.855,23.438,24.414
1643749552.568,26.855,33.691,24.902,21.973,6.836
1643749552.571,20.996,34.668,23.926,29.785,23.926
1643749552.575,19.531,35.645,28.320,37.109,34.668
1643749552.579,22.949,32.227,29.785,28.809,20.996
1643749552.583,22.949,32.227,26.367,17.090,5.859
1643749552.587,28.320,31.250,26.855,20.996,3.418
1643749552.590,34.180,30.273,26.367,28.809,49.805
1643749552.594,34.668,29.297,27.344,24.902,99.121
1643749552.598,22.949,29.785,29.785,12.695,11.230
1643749552.602,12.207,31.738,29.785,11.230,-21.484
1643749552.606,12.695,31.738,29.785,22.461,36.133
1643749552.610,15.625,30.762,29.785,29.785,53.223
1643749552.614,17.578,27.832,29.297,25.391,92.773
1643749552.617,17.578,26.855,29.297,20.020,88.867
1643749552.621,20.508,27.344,30.273,22.949,36.133
1643749552.625,22.949,28.809,28.809,24.902,55.664
1643749552.629,22.461,29.297,27.832,23.438,34.668
1643749552.633,24.414,29.297,27.344,17.578,34.180
1643749552.635,29.785,26.855,29.297,20.508,12.695
1643749552.639,22.949,25.391,28.320,26.367,-9.766
1643749552.643,22.461,26.855,25.391,22.949,3.906
1643749552.647,28.809,26.855,28.809,13.184,-15.625
1643749552.651,20.996,25.391,30.762,8.301,-10.254
1643749552.655,14.648,27.832,27.832,22.949,37.109
1643749552.659,19.043,31.250,27.344,28.320,54.199
1643749552.662,25.391,29.785,30.762,18.555,17.090
1643749552.666,25.391,31.250,32.227,15.625,-8.301
1643749552.670,20.508,33.691,27.344,19.531,19.043
1643749552.674,26.367,31.738,27.832,26.367,77.637
1643749552.678,27.832,32.227,29.297,25.879,42.480
1643749552.680,19.531,33.203,28.809,21.484,-3.906
1643749552.684,18.066,32.227,29.297,27.832,-17.090
1643749552.688,18.066,33.203,28.320,32.715,27.832
1643749552.692,14.648,32.715,27.832,28.320,71.777
1643749552.696,17.090,30.762,28.809,24.902,63.477
1643749552.700,20.020,31.250,30.273,29.785,20.508
1643749552.704,22.461,31.250,29.785,35.156,41.504
1643749552.707,31.738,31.250,33.203,35.645,60.059
1643749552.711,30.273,30.762,34.668,28.320,-12.207
1643749552.715,30.273,29.785,31.738,26.855,-11.230
1643749552.719,28.320,31.250,30.273,37.598,28.320
1643749552.723,21.973,34.180,32.715,41.016,49.805
1643749552.725,18.066,32.715,34.180,31.250,8.301
1643749552.729,26.367,29.297,34.668,30.762,-37.109
1643749552.733,36.133,30.273,35.156,33.691,22.949
1643749552.737,30.273,30.762,33.691,32.227,79.102
1643749552.741,24.414,30.762,33.203,31.250,58.594
1643749552.745,19.531,32.715,31.250,22.949,41.504
1643749552.749,15.137,32.227,31.738,23.438,39.551
1643749552.752,22.461,30.762,34.668,37.109,42.480
1643749552.756,28.809,34.668,35.156,33.203,54.199
1643749552.760,25.391,35.156,33.203,26.367,54.199
1643749552.764,27.344,31.250,34.180,34.180,42.480
1643749552.768,35.156,29.297,33.203,42.969,48.340
1643749552.771,35.645,29.785,28.809,31.250,57.617
1643749552.775,30.762,31.738,29.297,16.602,19.531
1643749552.779,29.785,31.250,32.227,21.484,10.254
1643749552.783,23.438,28.809,31.250,30.762,54.688
1643749552.787,21.484,29.785,29.785,32.715,45.898
1643749552.791,21.484,32.715,30.762,29.297,28.320
1643749552.795,20.996,37.598,31.250,20.508,11.719
1643749552.798,21.484,35.645,28.320,23.438,16.113
1643749552.802,26.367,32.715,26.855,36.621,71.289
1643749552.806,30.273,32.227,34.668,31.738,86.426
1643749552.810,33.691,32.227,36.621,20.020,2.441
1643749552.814,32.715,33.203,31.250,25.391,-31.250
1643749552.830,25.391,33.203,32.227,39.062,20.508
1643749552.834,26.367,33.203,32.227,40.527,30.762
1643749552.838,23.926,31.738,30.762,33.691,12.207
1643749552.842,15.625,33.203,32.227,30.762,20.020
1643749552.846,18.066,34.180,33.203,31.250,44.434
1643749552.850,25.391,34.180,33.691,30.273,41.992
1643749552.854,34.180,37.598,32.715,20.996,15.137
1643749552.857,32.715,36.133,28.809,12.695,18.066
1643749552.861,27.832,33.691,29.297,25.391,18.066
1643749552.865,29.785,35.645,30.762,33.691,6.836
1643749552.869,29.297,34.180,31.250,21.973,-9.766
1643749552.873,28.809,30.762,32.715,17.578,-7.812
1643749552.875,23.926,29.785,28.809,25.391,4.883
1643749552.879,18.066,27.832,27.344,26.855,57.617
1643749552.883,22.949,27.344,27.832,19.531,64.941
1643749552.887,17.090,28.320,25.391,10.742,5.371
1643749552.891,8.301,26.855,24.902,11.719,-23.926
1643749552.895,21.973,25.879,26.367,20.996,34.668
1643749552.899,26.367,28.320,26.367,19.531,81.543
1643749552.902,14.648,29.785,27.832,17.578,36.621
1643749552.906,17.578,27.344,30.762,26.855,14.648
1643749552.910,19.531,27.344,30.273,34.180,27.344
1643749552.914,19.531,27.832,29.785,33.691,39.062
1643749552.918,19.043,29.297,28.320,24.902,27.832
1643749552.920,15.625,28.809,30.273,20.020,8.789
1643749552.924,17.578,29.785,32.227,27.832,23.438
1643749552.928,20.996,29.297,31.250,35.645,43.945
1643749552.932,26.855,26.855,31.738,32.715,33.203
1643749552.936,24.902,25.879,32.227,24.902,-1.465
1643749552.940,19.531,26.367,29.297,27.344,9.766
1643749552.944,22.949,30.273,28.320,33.203,6.836
1643749552.947,18.066,31.250,28.320,32.227,34.668
1643749552.951,13.184,31.250,28.809,22.461,46.875
1643749552.955,16.602,31.250,30.273,16.602,17.090
1643749552.959,19.531,30.273,27.832,25.879,31.250
1643749552.963,29.785,30.273,28.809,30.273,60.547
1643749552.965,28.809,29.297,27.344,18.555,20.996
1643749552.969,21.973,31.250,22.461,13.672,-15.625
1643749552.973,22.949,30.762,23.926,20.996,16.602
1643749552.977,36.133,27.832,27.832,24.414,20.996
1643749552.981,39.062,32.715,27.832,17.578,23.438
1643749552.985,37.598,32.715,27.344,15.625,73.242
1643749552.989,40.039,30.762,26.855,24.902,94.238
1643749552.992,41.992,31.738,27.832,35.645,78.613
1643749552.996,36.621,30.762,31.250,23.438,-11.719
1643749553.000,21.484,28.320,29.297,19.043,-48.828
1643749553.004,17.578,27.832,25.391,34.668,26.367
1643749553.008,16.113,25.879,30.273,42.480,71.777
1643749553.010,12.695,25.391,31.738,39.062,16.602
1643749553.014,13.672,23.438,31.250,31.738,32.227
1643749553.018,21.484,24.414,32.227,29.785,39.062
1643749553.022,20.996,30.273,32.715,31.738,-5.371
1643749553.026,21.973,30.273,30.762,32.227,68.359
1643749553.030,32.227,28.320,33.691,30.273,5.371
1643749553.034,31.738,29.785,36.133,27.832,-100.586
1643749553.037,32.715,30.273,32.227,31.250,29.785
1643749553.041,28.320,33.203,29.297,26.855,134.277
1643749553.045,24.414,31.738,28.809,18.066,56.641
1643749553.049,26.367,28.320,27.832,20.020,32.715
1643749553.053,26.367,28.320,28.320,28.320,26.367
1643749553.055,23.438,28.809,30.273,38.086,5.859
1643749553.059,22.461,27.832,28.809,28.320,43.457
1643749553.063,20.020,27.832,29.297,13.672,40.039
1643749553.067,33.203,29.785,30.762,23.438,41.992
1643749553.071,33.691,29.297,27.832,40.039,94.238
1643749553.075,21.973,25.391,28.320,40.039,97.168
1643749553.079,31.738,24.902,30.273,35.156,62.988
1643749553.082,26.855,28.320,31.250,31.250,21.973
1643749553.086,23.438,29.785,32.227,35.156,28.809
1643749553.090,36.133,27.344,32.227,41.504,61.035
1643749553.094,42.969,27.344,33.691,34.180,40.527
1643749553.098,41.992,29.785,31.738,27.832,-4.883
1643749553.100,30.762,29.297,27.832,33.203,27.344
1643749553.104,20.020,25.879,30.273,35.156,39.062
1643749553.108,17.090,26.367,32.715,26.367,-7.324
1643749553.112,15.625,26.367,31.250,18.555,17.090
1643749553.116,16.602,27.344,30.273,24.414,46.387
1643749553.120,15.625,28.320,30.273,32.227,44.434
1643749553.124,24.902,27.344,31.250,28.320,24.902
1643749553.127,37.598,27.832,28.320,17.090,-19.531
1643749553.131,31.250,27.344,23.926,17.090,-13.184
1643749553.135,17.578,25.879,23.926,28.320,33.203
1643749553.139,13.184,25.391,23.926,24.414,15.137
1643749553.143,10.742,24.902,24.414,14.160,7.324
1643749553.145,16.602,25.879,29.785,20.996,37.598
1643749553.149,18.555,27.832,30.273,30.762,29.785
1643749553.153,18.066,30.762,27.344,30.273,27.832
1643749553.157,22.461,31.738,27.344,25.391,16.113
1643749553.161,18.555,29.785,30.273,20.508,-4.395
1643749553.165,24.414,31.738,32.227,25.879,26.367
1643749553.169,33.691,32.715,34.668,30.273,-0.977
1643749553.172,21.484,32.715,32.227,15.137,-9.277
1643749553.176,11.719,32.227,28.320,8.789,6.348
1643749553.180,23.438,32.227,29.297,20.996,5.859
1643749553.184,28.809,30.273,30.762,27.344,26.855
1643749553.188,27.832,30.273,31.738,26.367,52.734
1643749553.205,27.832,28.809,33.203,20.996,7.812
1643749553.209,21.973,29.785,34.668,21.973,3.906
1643749553.213,24.902,30.273,32.715,38.086,46.875
1643749553.217,36.621,29.297,30.273,35.156,76.660
1643749553.221,32.227,34.668,30.273,18.066,68.848
1643749553.225,30.273,33.203,31.738,14.648,17.578
1643749553.229,38.086,30.762,33.203,26.367,61.035
1643749553.232,37.109,31.250,34.668,29.785,61.523
1643749553.236,34.180,29.297,32.715,20.508,18.066
1643749553.240,28.809,34.180,29.297,13.672,-13.672
1643749553.244,26.855,34.668,31.250,22.461,-18.066
1643749553.248,37.598,29.297,31.250,39.062,60.059
1643749553.250,43.457,29.785,28.809,26.855,49.805
1643749553.254,37.109,30.273,27.832,16.602,12.207
1643749553.258,28.809,31.738,28.320,22.461,57.617
1643749553.262,22.461,32.227,28.809,33.203,71.777
1643749553.266,26.855,30.273,27.832,34.668,59.082
1643749553.270,22.461,31.738,32.227,25.879,-8.301
1643749553.274,20.508,33.691,32.715,26.367,-59.082
1643749553.277,30.273,30.273,29.785,32.227,44.922
1643749553.281,35.156,29.297,31.738,40.039,88.867
1643749553.285,31.738,30.273,34.668,34.668,28.320
1643749553.289,27.344,29.785,36.133,27.344,13.672
1643749553.293,24.902,28.320,33.691,31.738,37.598
1643749553.296,17.090,28.809,32.715,35.156,59.570
1643749553.300,16.602,29.297,34.180,30.273,24.902
1643749553.304,19.531,29.297,34.180,25.391,-31.250
1643749553.308,22.949,29.297,31.738,35.645,2.441
1643749553.312,23.926,28.809,30.273,35.645,45.898
1643749553.316,20.508,29.297,30.273,20.508,89.844
1643749553.320,15.625,31.738,28.809,15.137,20.996
1643749553.323,23.926,33.691,28.320,19.531,-0.488
1643749553.327,28.320,33.691,26.367,27.832,120.605
1643749553.331,21.973,33.691,24.902,24.902,51.758
1643749553.335,14.160,31.250,22.461,11.719,-14.648
1643749553.339,10.742,30.762,21.484,13.184,44.922
1643749553.340,14.648,31.738,23.438,22.461,47.852
1643749553.344,14.648,30.273,23.438,20.508,52.734
1643749553.348,17.090,31.250,23.438,12.695,38.574
