timestamps,TP9,AF7,AF8,TP10,Right AUX
1643749425.104,38.086,33.691,28.809,20.508,15.137
1643749425.108,38.086,36.621,25.391,23.926,-14.160
1643749425.112,25.879,36.621,23.438,33.691,0.977
1643749425.116,18.066,36.133,25.879,29.297,15.625
1643749425.120,20.020,36.133,26.367,16.113,-11.230
1643749425.124,27.832,34.180,27.344,22.949,-10.254
1643749425.128,28.809,32.227,29.785,35.156,24.902
1643749425.131,26.367,30.762,28.809,26.855,33.203
1643749425.135,26.855,29.785,30.762,20.508,28.809
1643749425.139,22.461,29.297,28.320,27.344,44.922
1643749425.143,19.531,28.809,22.949,30.273,63.965
1643749425.147,27.344,32.715,21.973,24.902,45.410
1643749425.148,30.273,35.645,23.926,16.113,17.578
1643749425.152,26.367,36.621,26.855,18.555,23.926
1643749425.156,22.949,38.574,20.020,25.879,3.906
1643749425.160,22.949,39.551,19.043,22.461,7.812
1643749425.164,34.180,39.551,27.344,19.043,16.602
1643749425.168,34.180,38.086,31.250,17.090,49.805
1643749425.172,26.367,36.133,32.227,25.391,89.355
1643749425.175,22.949,34.180,33.203,34.180,60.547
1643749425.179,23.926,32.715,33.691,25.879,78.613
1643749425.183,27.832,31.738,29.785,17.578,66.406
1643749425.187,22.461,28.320,29.297,20.020,37.109
1643749425.191,20.020,26.855,30.273,26.855,-1.465
1643749425.207,23.926,31.250,29.297,28.809,34.180
1643749425.211,24.902,28.320,30.762,25.391,48.340
1643749425.215,21.973,23.926,32.227,24.902,0.000
1643749425.219,20.508,23.438,32.227,27.344,41.504
1643749425.223,22.461,25.391,25.879,28.320,28.809
1643749425.227,21.484,29.785,19.531,24.902,17.090
1643749425.231,24.414,26.367,27.832,18.555,59.082
1643749425.234,27.832,23.438,35.156,18.066,25.879
1643749425.238,31.738,26.367,32.227,23.438,44.434
1643749425.242,30.273,23.438,30.762,18.555,38.574
1643749425.246,30.762,24.414,29.297,12.695,-11.719
1643749425.250,30.762,27.344,28.809,21.973,-10.742
1643749425.238,27.344,27.344,28.320,28.320,69.824
1643749425.242,18.555,27.832,28.809,26.367,88.867
1643749425.246,23.926,30.762,30.273,23.926,2.930
1643749425.250,24.902,33.203,27.344,25.879,-17.578
1643749425.254,21.484,32.715,25.879,33.203,45.410
1643749425.258,22.461,29.785,22.949,32.227,22.461
1643749425.262,24.414,33.203,24.902,21.973,28.320
1643749425.265,25.391,32.227,31.738,17.578,20.996
1643749425.269,21.484,31.250,31.250,23.438,3.906
1643749425.273,16.602,32.715,29.785,27.832,24.902
1643749425.277,25.391,33.691,35.156,23.438,-16.113
1643749425.281,34.180,33.691,36.133,20.020,-5.371
1643749425.284,25.391,31.738,30.762,22.949,44.922
1643749425.288,16.602,29.297,27.832,20.508,29.297
1643749425.292,19.531,26.367,29.785,14.648,37.598
1643749425.296,29.297,26.367,31.738,13.672,-7.324
1643749425.300,19.531,26.855,30.273,19.043,-44.922
1643749425.304,10.742,26.367,29.297,25.391,31.738
1643749425.308,14.160,24.902,33.203,22.461,82.031
1643749425.311,18.066,23.438,29.785,10.254,68.848
1643749425.315,13.184,22.949,23.438,15.137,-0.977
1643749425.319,14.160,23.926,30.273,28.320,26.855
1643749425.323,18.066,23.926,33.203,27.832,32.227
1643749425.327,17.090,24.902,29.785,20.996,7.812
1643749425.359,17.090,24.414,28.809,21.484,55.664
1643749425.363,18.066,22.461,30.762,30.273,69.824
1643749425.367,19.043,21.973,31.738,34.668,66.895
1643749425.371,17.578,20.996,27.832,26.855,-11.230
1643749425.375,14.648,20.508,23.926,17.578,-23.438
1643749425.379,19.043,22.461,25.391,24.414,29.297
1643749425.383,16.113,24.414,25.879,27.344,-2.441
1643749425.386,8.301,26.855,22.461,15.625,30.273
1643749425.390,19.043,26.855,21.484,12.207,52.734
1643749425.394,22.461,25.391,22.461,18.066,50.293
1643749425.398,18.066,27.832,25.879,24.902,67.871
1643749425.402,17.578,31.250,28.320,20.020,65.430
1643749425.388,9.766,27.344,29.785,5.859,14.648
1643749425.392,8.789,24.414,28.809,5.371,21.973
1643749425.396,12.207,27.832,26.855,21.973,32.227
1643749425.400,12.695,29.785,27.344,24.414,38.574
1643749425.404,21.484,31.250,30.273,12.207,36.621
1643749425.408,30.273,32.227,32.715,14.160,-22.949
1643749425.412,22.461,31.738,31.250,20.020,-7.812
1643749425.415,10.742,29.785,27.832,18.066,42.480
1643749425.419,17.090,27.344,26.855,9.277,38.574
1643749425.423,24.902,28.320,25.879,3.418,38.086
1643749425.427,22.949,31.250,25.879,14.648,35.645
1643749425.431,21.484,27.344,31.738,17.578,38.086
1643749425.433,22.949,25.391,33.691,12.207,60.059
1643749425.437,29.785,24.902,38.086,9.277,49.805
1643749425.441,31.250,30.762,47.363,26.367,45.410
1643749425.445,17.578,38.086,46.875,41.992,-9.277
1643749425.449,2.930,37.109,40.039,32.227,7.812
1643749425.453,-16.113,39.062,42.480,7.812,28.320
1643749425.457,-22.461,36.621,52.246,-1.953,-12.695
1643749425.460,-34.180,29.297,53.711,-8.789,32.227
1643749425.464,-46.387,38.086,51.758,-27.832,17.578
1643749425.468,-45.410,47.852,64.453,-47.852,-24.414
1643749425.472,-63.965,61.035,73.730,-70.801,11.719
1643749425.476,-92.285,60.547,74.219,-90.332,34.180
1643749425.478,-121.094,57.129,72.266,-115.723,70.801
1643749425.482,-127.441,76.660,74.707,-133.301,43.457
1643749425.486,-114.258,90.332,81.543,-123.535,33.203
1643749425.490,-115.234,81.543,81.055,-115.234,76.172
1643749425.494,-126.953,73.242,74.707,-122.559,46.387
1643749425.498,-128.418,79.590,75.195,-125.488,43.457
1643749425.502,-122.559,83.496,74.219,-126.465,16.602
1643749425.505,-116.211,75.684,74.707,-117.676,52.734
1643749425.509,-112.305,76.172,80.078,-103.027,98.633
1643749425.513,-104.492,76.172,75.195,-103.027,81.543
1643749425.517,-93.262,73.242,67.383,-113.281,52.734
1643749425.521,-98.633,70.801,71.289,-107.910,50.293
1643749425.523,-104.004,72.266,68.848,-89.844,44.434
1643749425.527,-89.355,71.289,57.129,-82.520,31.250
1643749425.531,-82.031,64.941,60.547,-81.543,51.270
1643749425.535,-81.543,65.430,65.430,-78.613,12.207
1643749425.539,-68.848,64.453,62.500,-64.941,36.621
1643749425.543,-54.199,63.965,61.523,-47.852,25.391
1643749425.547,-44.922,63.965,57.617,-43.457,-38.086
1643749425.550,-33.691,62.500,52.246,-38.574,2.441
1643749425.554,-16.602,59.570,50.293,-14.648,27.344
1643749425.558,10.742,53.711,44.434,14.648,9.766
1643749425.562,24.902,46.387,44.434,20.996,21.973
1643749425.566,31.250,42.969,40.527,21.484,0.488
1643749425.569,46.875,41.016,29.297,39.062,-1.465
1643749425.573,52.246,33.203,24.414,57.129,48.828
1643749425.577,48.340,24.902,20.508,62.500,-0.488
1643749425.581,62.012,20.508,20.020,61.035,23.926
1643749425.585,73.242,18.066,19.043,62.500,96.191
1643749425.589,69.824,19.531,12.695,75.195,30.273
1643749425.593,79.102,14.648,10.742,84.961,17.090
1643749425.596,82.031,9.766,9.766,83.496,32.227
1643749425.600,92.773,11.230,5.859,83.984,-15.625
1643749425.604,93.262,7.324,2.441,91.309,-7.324
1643749425.608,87.402,3.906,5.371,95.215,3.418
1643749425.612,91.309,4.883,5.859,93.750,13.672
1643749425.613,97.168,3.906,4.395,87.402,0.977
1643749425.617,100.586,3.418,3.906,90.820,6.348
1643749425.621,92.285,2.930,0.977,98.145,89.355
1643749425.625,90.820,0.488,1.953,97.168,84.961
1643749425.629,95.703,2.441,1.465,86.914,25.879
1643749425.633,100.098,6.348,-1.953,85.449,30.273
1643749425.637,102.539,5.859,-5.371,94.727,88.867
1643749425.640,94.238,4.395,-3.906,89.844,78.125
1643749425.644,85.938,2.441,0.488,79.590,60.059
1643749425.648,94.238,-0.488,5.371,89.355,41.992
1643749425.652,96.191,0.977,6.348,100.586,13.672
1643749425.656,102.051,-0.488,4.395,99.609,35.156
1643749425.658,111.328,-1.465,0.488,90.820,30.273
1643749425.662,97.168,0.000,-1.953,85.938,17.578
1643749425.666,86.914,1.465,0.488,96.191,28.320
1643749425.670,89.355,3.418,0.488,100.586,77.148
1643749425.674,93.750,4.883,1.953,97.656,40.527
1643749425.678,98.633,4.883,2.441,91.309,9.277
1643749425.682,93.750,6.348,2.441,87.891,5.859
1643749425.685,99.121,10.254,4.395,89.844,8.789
1643749425.689,99.609,8.789,6.348,88.379,9.277
1643749425.693,83.008,7.324,4.883,79.590,-11.719
1643749425.697,75.195,8.301,8.301,76.660,-17.090
1643749425.701,75.684,10.742,13.184,83.984,-12.695
1643749425.718,71.289,11.230,11.719,79.590,22.949
1643749425.722,69.336,9.277,12.207,69.336,15.137
1643749425.726,71.289,12.207,14.160,66.895,32.715
1643749425.730,64.453,11.719,16.602,76.172,60.059
1643749425.734,71.289,11.230,16.602,85.449,53.223
1643749425.738,78.125,16.602,16.602,75.684,2.930
1643749425.742,71.289,20.020,17.090,65.918,15.137
1643749425.745,70.312,21.484,16.113,73.730,48.340
1643749425.749,68.359,22.949,15.625,76.172,-4.395
1643749425.753,69.824,26.367,17.090,67.871,-1.465
1643749425.757,70.312,28.809,13.672,58.594,-6.348
1643749425.761,61.523,26.367,7.812,53.223,-2.930
1643749425.762,58.594,23.926,17.090,59.570,8.301
1643749425.766,51.758,23.926,20.508,57.129,70.312
1643749425.770,41.992,24.414,20.996,45.410,37.598
1643749425.774,45.410,24.902,21.484,46.387,25.391
1643749425.778,52.246,25.879,17.578,60.059,69.336
1643749425.782,60.547,26.855,20.996,62.500,24.414
1643749425.786,63.965,28.320,26.855,53.711,24.902
1643749425.789,61.035,27.344,25.391,48.828,32.227
1643749425.793,63.477,25.879,23.926,51.758,58.105
1643749425.797,59.082,28.320,29.297,57.617,49.316
1643749425.801,54.688,33.691,28.320,50.293,28.809
1643749425.805,60.059,31.738,27.344,45.410,-2.930
1643749425.807,57.617,31.250,24.902,54.688,-17.090
1643749425.811,51.270,34.180,20.996,62.012,46.875
1643749425.815,52.246,29.297,26.855,56.152,80.078
1643749425.819,57.617,26.367,30.762,46.387,32.227
1643749425.823,47.852,28.809,30.273,43.457,15.625
1643749425.827,35.645,25.391,31.738,47.852,16.113
1643749425.831,44.434,24.414,29.785,45.410,14.648
1643749425.834,42.969,25.391,28.809,34.668,22.949
1643749425.838,29.297,25.391,32.227,36.133,34.180
1643749425.842,26.367,25.879,32.227,38.086,35.156
1643749425.846,24.902,24.414,27.344,34.668,53.223
1643749425.850,30.273,28.809,22.949,27.344,67.383
1643749425.852,31.738,29.297,25.879,21.484,56.641
1643749425.856,27.344,26.855,29.785,32.227,-3.418
1643749425.860,24.414,25.879,21.973,41.016,35.156
1643749425.864,22.461,25.391,21.484,34.668,51.758
1643749425.868,29.297,26.855,31.250,25.879,9.277
1643749425.872,33.203,24.414,31.250,23.926,-11.719
1643749425.876,32.715,23.926,28.809,32.715,16.602
1643749425.879,41.016,27.344,29.297,32.227,80.078
1643749425.883,36.621,21.484,28.320,16.602,88.867
1643749425.887,31.250,17.578,25.879,20.996,64.453
1643749425.891,40.527,23.438,31.738,35.156,20.020
1643749425.895,30.273,30.273,33.203,29.297,7.324
1643749425.897,21.973,34.668,27.832,22.949,82.031
1643749425.901,23.926,31.250,27.832,24.414,66.406
1643749425.905,19.531,29.785,24.414,32.715,-15.137
1643749425.909,22.461,30.273,25.879,33.691,31.250
1643749425.913,29.785,26.367,29.785,27.832,52.734
1643749425.917,30.273,27.832,26.855,24.902,23.438
1643749425.921,27.832,29.297,24.902,29.785,11.719
1643749425.924,33.691,27.832,20.996,38.574,54.199
1643749425.928,38.574,27.832,20.996,28.809,63.477
1643749425.932,28.320,27.832,23.926,19.043,25.391
1643749425.936,24.414,28.809,24.902,31.250,26.855
1643749425.940,25.391,27.344,22.949,33.691,45.410
1643749425.943,20.996,23.438,22.461,21.484,41.016
1643749425.947,11.719,26.367,15.625,9.766,-14.648
1643749425.951,9.277,27.832,14.648,13.184,1.953
1643749425.955,16.113,29.297,20.996,22.949,51.758
1643749425.959,16.602,30.273,20.996,22.461,82.520
1643749425.963,16.113,29.297,20.020,10.254,55.176
1643749425.967,19.043,28.320,22.461,3.906,60.059
1643749425.970,13.672,27.832,22.949,14.160,80.078
1643749425.974,15.137,26.367,19.043,18.066,33.691
1643749425.978,21.973,26.367,21.484,12.207,66.406
1643749425.982,24.902,30.273,25.879,12.695,10.254
1643749425.986,23.438,30.762,24.414,23.926,-59.082
1643749425.987,23.926,28.320,20.508,37.598,7.812
1643749425.991,23.438,28.809,20.020,34.180,79.102
1643749425.995,15.137,30.762,21.973,24.414,15.625
1643749425.999,17.578,27.832,26.855,35.156,12.695
1643749426.003,26.367,27.344,27.832,43.945,49.316
1643749426.007,27.344,27.344,29.297,40.039,19.043
1643749426.011,23.438,25.391,33.691,28.320,50.781
1643749426.014,20.996,27.832,37.598,24.902,27.832
1643749426.018,21.484,28.809,38.574,34.180,19.531
1643749426.022,31.250,26.855,35.645,32.227,30.762
1643749426.026,29.297,26.855,33.203,19.531,10.742
1643749426.030,20.020,29.297,32.715,15.625,22.461
1643749426.033,20.020,29.297,33.203,25.391,88.867
1643749426.037,19.531,27.344,31.250,30.762,96.191
1643749426.041,19.531,30.273,23.926,22.461,72.266
1643749426.045,15.137,32.715,21.484,11.719,38.574
1643749426.049,14.648,30.273,28.320,16.602,18.066
1643749426.053,17.578,29.785,34.180,28.809,-3.418
1643749426.057,21.973,30.762,33.203,20.508,-55.176
1643749426.060,15.137,28.320,26.855,5.371,-30.762
1643749426.064,7.324,28.320,26.367,7.812,-20.996
1643749426.068,12.695,29.785,31.738,19.043,-5.859
1643749426.072,5.371,27.832,31.250,19.043,6.348
1643749426.076,2.441,27.344,28.320,9.277,27.344
1643749426.093,3.418,28.809,27.344,9.766,14.648
1643749426.097,-3.418,27.832,21.484,20.996,-1.465
1643749426.101,2.441,25.879,17.578,25.391,17.578
1643749426.105,15.137,21.973,27.832,21.484,18.066
1643749426.109,16.602,20.996,31.738,12.207,13.672
1643749426.113,18.066,21.973,32.227,14.648,36.133
1643749426.117,22.949,20.020,33.691,25.879,40.039
1643749426.120,20.508,22.461,26.367,17.578,33.691
1643749426.124,20.996,25.879,25.879,9.277,-13.184
1643749426.128,27.344,25.391,29.785,18.066,-44.434
1643749426.132,16.113,23.926,30.762,31.738,-8.301
1643749426.136,11.719,25.879,29.297,33.691,0.000
1643749426.138,20.996,25.391,24.414,26.855,7.324
1643749426.142,26.855,25.391,25.391,27.832,-9.766
1643749426.146,27.344,24.414,28.809,30.762,-0.488
1643749426.150,23.926,24.902,26.855,28.320,101.074
1643749426.154,40.039,26.367,27.832,26.855,78.125
1643749426.158,41.016,28.320,27.344,28.809,25.391
1643749426.162,36.621,31.738,29.785,35.156,31.250
1643749426.165,32.715,32.715,24.902,36.621,38.086
1643749426.169,24.414,32.227,20.020,27.832,43.457
1643749426.173,36.621,32.715,24.414,20.996,22.949
1643749426.177,35.156,32.715,24.414,24.902,25.391
1643749426.181,31.738,34.180,26.855,32.227,77.148
1643749426.184,36.621,34.668,30.762,22.949,88.867
1643749426.188,41.992,32.715,30.762,9.766,55.664
1643749426.192,35.156,33.203,29.297,14.160,55.664
1643749426.196,22.949,35.645,27.832,24.414,15.137
1643749426.200,20.996,35.645,23.438,18.555,-13.184
1643749426.204,18.555,33.203,22.461,4.883,41.016
1643749426.208,17.090,30.762,25.879,5.859,20.508
1643749426.211,21.973,30.273,23.438,15.137,-7.324
1643749426.215,20.508,31.250,20.996,13.672,58.594
1643749426.219,21.973,31.738,20.508,7.324,0.488
1643749426.223,23.926,28.320,23.926,1.953,-15.625
1643749426.227,17.578,26.367,28.809,5.859,6.348
1643749426.227,16.602,27.344,32.227,16.113,25.879
1643749426.231,11.719,27.344,31.250,11.230,56.641
1643749426.235,12.207,26.855,27.344,2.441,-3.418
1643749426.239,14.160,28.320,24.414,12.695,-10.742
1643749426.243,14.160,27.344,26.367,22.461,16.113
1643749426.247,12.207,24.414,23.926,19.531,46.875
1643749426.251,16.113,24.902,22.949,13.184,24.902
1643749426.254,23.926,23.926,26.855,22.461,-39.062
1643749426.258,22.949,24.414,29.785,34.180,-20.996
1643749426.262,20.508,25.879,20.508,26.855,57.617
1643749426.266,24.414,24.902,19.531,18.555,48.828
1643749426.270,26.855,24.902,31.738,22.461,28.809
1643749426.273,23.926,24.902,31.738,34.180,75.684
1643749426.277,17.578,23.438,30.273,33.203,55.664
1643749426.281,17.090,27.832,27.832,28.320,16.113
1643749426.285,25.391,31.738,23.926,29.297,72.754
1643749426.289,31.250,29.785,27.344,35.645,52.734
1643749426.293,30.762,28.809,30.762,38.574,4.395
1643749426.297,34.668,29.297,28.809,32.715,69.336
1643749426.300,41.016,29.297,29.785,29.785,45.410
1643749426.304,33.203,29.785,29.297,30.762,52.246
1643749426.308,25.391,25.879,31.250,33.203,120.117
1643749426.312,23.926,25.391,33.203,31.250,67.383
1643749426.316,21.973,29.785,33.203,19.043,37.109
1643749426.318,21.973,30.762,31.250,16.113,51.758
1643749426.322,21.973,31.738,25.879,26.367,91.309
1643749426.326,24.414,30.762,30.762,25.391,93.750
1643749426.330,33.691,30.762,33.691,11.230,23.438
1643749426.334,33.203,30.273,29.297,7.812,-1.465
1643749426.338,27.344,28.809,25.391,20.020,12.207
1643749426.342,21.973,27.344,27.344,26.367,29.785
1643749426.345,8.789,27.832,25.879,18.066,5.371
1643749426.349,1.465,25.879,22.949,19.531,-11.230
1643749426.353,-4.395,22.949,27.832,28.809,15.625
1643749426.357,-2.441,27.832,30.762,33.203,43.457
1643749426.361,5.371,28.809,28.320,25.391,37.109
1643749426.363,14.648,25.391,26.367,14.648,0.488
1643749426.367,14.648,24.414,28.809,17.090,-6.836
1643749426.371,7.324,24.902,29.785,27.832,17.578
1643749426.375,7.812,25.391,29.785,24.902,85.938
1643749426.379,16.113,26.367,29.785,18.555,65.430
1643749426.383,26.855,27.832,21.484,26.367,6.836
1643749426.387,28.320,26.367,18.555,34.180,-48.828
1643749426.390,25.879,28.320,28.320,30.273,-38.574
1643749426.394,25.879,27.832,28.320,19.043,49.316
1643749426.398,30.273,24.414,25.879,18.066,-16.602
1643749426.402,24.414,25.879,25.879,22.461,-35.156
1643749426.406,17.578,25.879,28.320,25.879,34.668
1643749426.408,22.949,25.879,31.738,21.484,41.504
1643749426.412,23.438,24.414,31.250,19.043,53.223
1643749426.416,15.625,22.949,29.297,25.879,44.922
1643749426.420,27.344,20.508,30.762,31.250,69.824
1643749426.424,34.668,19.043,34.668,28.320,57.617
1643749426.428,35.156,20.508,30.273,23.926,2.930
1643749426.432,38.574,22.461,25.879,27.832,-17.090
1643749426.435,32.227,21.484,28.809,28.809,7.324
1643749426.439,25.879,20.508,31.738,25.879,40.039
1643749426.443,23.438,22.949,32.715,22.949,50.781
1643749426.447,23.926,22.461,31.250,25.879,14.648
1643749426.451,28.320,20.508,31.738,39.062,-7.812
1643749426.468,28.809,21.484,29.297,34.180,49.316
1643749426.472,24.902,22.949,29.297,20.508,34.180
1643749426.476,20.508,22.949,26.855,21.973,31.250
1643749426.480,30.762,26.367,16.113,27.344,96.680
1643749426.484,34.180,24.902,21.484,30.273,68.359
1643749426.488,20.508,23.926,32.715,22.461,7.812
1643749426.492,18.555,27.344,30.762,14.648,52.246
1643749426.495,25.879,26.855,26.367,19.531,61.523
1643749426.499,22.949,26.855,25.879,27.344,79.102
1643749426.503,22.949,25.391,28.809,25.391,51.758
1643749426.507,25.879,27.832,26.855,16.113,10.254
1643749426.511,22.949,28.320,24.902,27.344,15.625
1643749426.513,28.809,25.879,28.320,36.133,-23.926
1643749426.517,24.414,28.809,26.855,27.344,-22.949
1643749426.521,19.043,29.785,21.484,14.648,41.504
1643749426.525,24.902,28.320,25.879,16.602,62.500
1643749426.529,27.832,28.320,32.715,28.809,11.230
1643749426.533,30.762,30.762,31.250,30.273,37.109
1643749426.537,35.156,32.227,29.297,24.902,34.180
1643749426.540,37.109,28.809,25.879,20.508,20.996
1643749426.544,33.691,29.297,21.973,23.438,2.441
1643749426.548,31.250,31.250,26.367,24.414,-19.043
1643749426.552,29.785,29.297,25.879,17.578,19.531
1643749426.556,23.926,27.832,23.438,11.230,21.973
1643749426.558,23.438,28.809,25.391,18.066,10.254
1643749426.562,27.832,27.344,24.902,31.250,56.641
1643749426.566,26.855,25.391,21.973,27.344,52.246
1643749426.570,27.832,23.926,21.484,17.090,18.555
1643749426.574,28.809,25.391,28.320,19.531,-2.441
1643749426.578,25.879,26.855,30.273,23.926,-27.832
1643749426.582,33.691,24.902,28.809,22.461,20.508
1643749426.585,36.621,25.391,29.297,19.531,29.785
1643749426.589,22.461,25.391,29.297,20.996,44.922
1643749426.593,18.555,26.367,24.902,25.391,54.199
1643749426.597,23.438,31.738,23.438,25.391,63.477
1643749426.601,29.785,30.273,28.320,22.949,70.312
1643749426.603,40.527,27.344,28.320,29.785,-55.176
1643749426.607,30.762,25.879,29.297,32.715,-78.125
1643749426.611,15.625,25.879,32.715,25.391,60.547
1643749426.615,20.508,26.855,36.133,20.508,81.055
1643749426.619,18.555,29.297,37.598,16.113,49.316
1643749426.623,21.973,27.832,36.621,22.461,67.383
1643749426.627,35.156,25.879,36.133,38.086,59.570
1643749426.630,38.574,24.414,33.203,31.250,8.301
1643749426.634,34.180,22.461,33.203,22.949,-18.555
1643749426.638,23.438,23.926,30.273,27.344,20.020
1643749426.642,12.207,24.902,25.391,31.250,0.488
1643749426.646,12.207,26.367,19.531,26.367,-2.930
1643749426.648,20.996,27.344,19.043,12.207,24.902
1643749426.652,24.414,30.273,29.297,13.184,8.301
1643749426.656,20.508,28.320,32.227,25.391,31.250
1643749426.660,23.438,23.926,32.227,29.297,79.590
1643749426.664,29.297,26.855,28.809,24.414,38.086
1643749426.668,32.227,29.297,28.809,23.438,-23.438
1643749426.672,25.879,28.809,27.344,29.785,0.000
1643749426.675,17.578,28.809,25.879,27.832,33.691
1643749426.679,21.484,31.250,27.832,15.137,43.945
1643749426.683,21.484,30.273,23.438,9.277,41.992
1643749426.687,13.672,27.344,23.438,17.578,22.461
1643749426.691,17.578,25.879,25.879,25.391,7.812
1643749426.692,20.508,29.297,21.973,20.020,-20.020
1643749426.696,14.160,31.738,26.855,15.137,-34.668
1643749426.700,14.648,27.832,31.738,16.113,27.344
1643749426.704,9.277,26.855,27.344,20.508,51.270
1643749426.708,13.672,26.367,25.879,27.344,16.113
1643749426.712,20.508,25.391,24.902,20.020,75.684
1643749426.716,15.625,26.367,24.902,11.719,71.777
1643749426.719,16.113,23.926,29.785,23.926,45.898
1643749426.723,18.066,24.414,28.809,23.926,41.016
1643749426.727,16.113,25.879,27.832,12.695,8.789
1643749426.731,19.043,27.832,30.762,10.742,-2.441
1643749426.735,21.973,29.297,24.902,20.996,18.066
1643749426.739,25.879,27.344,22.949,30.762,64.453
1643749426.743,21.484,28.320,28.320,22.461,53.711
1643749426.747,24.902,30.273,33.203,15.625,30.762
1643749426.751,30.762,29.785,32.227,22.461,57.617
1643749426.755,23.438,31.250,29.297,33.691,77.637
1643749426.759,21.973,31.250,31.250,31.738,46.387
1643749426.763,25.391,29.297,27.832,21.484,15.625
1643749426.766,23.438,31.250,28.809,16.602,-4.395
1643749426.770,23.438,30.762,33.203,25.879,53.223
1643749426.774,30.273,30.762,34.668,27.832,116.699
1643749426.778,31.738,32.715,33.203,23.438,52.734
1643749426.782,25.391,32.227,26.855,21.484,45.410
1643749426.783,14.160,30.762,28.809,19.531,68.359
1643749426.787,12.695,31.250,36.133,20.508,66.895
1643749426.791,25.391,29.785,38.086,16.602,51.758
1643749426.795,26.855,28.809,36.621,18.555,-14.648
1643749426.799,27.344,30.273,36.133,29.785,-23.926
1643749426.803,29.297,32.227,35.645,37.598,71.777
1643749426.807,23.438,33.203,35.156,28.809,91.797
1643749426.810,21.973,32.715,34.668,16.602,28.809
1643749426.814,23.438,32.227,30.762,25.391,5.859
1643749426.818,29.297,31.738,29.297,35.645,0.977
1643749426.822,26.367,29.297,32.227,31.738,-1.953
1643749426.826,22.949,27.344,30.273,24.414,11.230
1643749426.843,33.691,28.320,29.785,25.391,29.297
1643749426.847,29.297,30.273,36.621,32.227,40.039
1643749426.851,18.555,31.250,33.691,33.691,61.035
1643749426.855,24.902,31.738,31.738,26.855,21.484
1643749426.859,29.297,35.156,34.668,20.996,-4.883
1643749426.863,24.414,36.621,34.668,30.273,39.062
1643749426.867,20.996,35.156,34.668,39.551,72.754
1643749426.870,25.879,33.691,34.668,33.203,59.570
1643749426.874,25.879,33.203,33.691,25.879,62.012
1643749426.878,26.855,36.621,33.691,23.926,39.551
1643749426.882,29.297,35.156,29.297,28.320,26.855
1643749426.886,28.809,32.227,25.391,25.879,11.719
1643749426.888,29.297,33.203,25.391,16.602,-17.090
1643749426.892,28.809,33.203,27.832,18.555,24.902
1643749426.896,25.391,30.273,31.250,29.785,43.945
1643749426.900,32.715,27.344,32.715,34.668,45.410
1643749426.904,34.180,27.344,34.668,29.785,0.977
1643749426.908,27.832,25.391,32.227,27.344,9.277
1643749426.912,28.809,27.344,31.250,36.133,62.988
1643749426.915,25.879,29.785,31.738,40.527,24.414
1643749426.919,28.320,30.762,30.762,30.762,-5.859
1643749426.923,37.598,32.227,30.762,27.344,-8.789
1643749426.927,33.691,33.203,27.832,29.785,5.371
1643749426.931,28.320,32.715,24.414,31.250,15.137
1643749426.933,34.668,31.738,21.484,32.715,54.688
1643749426.937,26.855,30.273,19.531,22.461,83.008
1643749426.941,22.949,29.785,25.391,20.508,22.461
1643749426.945,31.738,30.273,28.809,31.250,-6.348
1643749426.949,30.273,32.715,27.832,27.832,21.973
1643749426.953,30.762,31.250,29.785,14.160,25.391
1643749426.957,29.297,25.391,31.250,17.090,5.371
1643749426.960,20.996,25.391,28.809,25.391,20.020
1643749426.964,16.602,23.926,30.273,22.461,25.879
1643749426.968,20.020,23.438,35.156,15.625,-9.766
1643749426.972,27.344,25.879,31.250,19.531,-25.391
1643749426.976,23.438,26.855,22.949,30.273,6.348
1643749426.978,19.043,26.855,20.508,32.715,57.129
1643749426.982,27.344,28.809,26.367,25.879,35.156
1643749426.986,24.414,30.273,27.344,18.066,5.371
1643749426.990,22.949,29.297,25.391,25.879,30.273
1643749426.994,29.785,27.344,25.879,37.109,65.430
1643749426.998,28.809,23.926,27.832,28.809,46.875
1643749427.002,23.438,22.949,27.832,17.578,5.859
1643749427.005,25.879,25.879,27.832,24.902,27.832
1643749427.009,26.367,27.344,25.879,33.203,83.984
1643749427.013,22.949,26.367,24.414,31.738,61.523
1643749427.017,27.344,24.902,28.320,23.438,10.254
1643749427.021,26.855,24.902,31.738,20.508,6.348
1643749427.024,25.879,26.367,25.879,31.250,10.254
1643749427.028,28.320,26.855,23.438,32.227,22.461
1643749427.032,20.508,26.855,30.273,21.484,28.809
1643749427.036,16.602,26.855,30.273,14.160,46.875
1643749427.040,17.578,24.902,27.832,24.414,59.082
1643749427.044,16.113,24.414,28.809,37.109,94.238
1643749427.048,20.996,25.879,26.855,31.738,51.270
1643749427.051,22.461,23.926,27.344,20.508,-5.859
1643749427.055,19.043,23.926,32.227,23.926,48.340
1643749427.059,7.812,27.344,28.809,28.320,30.273
1643749427.063,3.418,29.297,25.879,19.043,64.453
1643749427.067,12.695,30.273,23.926,11.719,67.871
1643749427.068,21.973,31.250,24.902,19.531,6.836
1643749427.072,23.438,31.738,24.902,30.762,49.316
1643749427.076,24.414,32.715,22.949,26.855,37.598
1643749427.080,24.414,30.762,25.879,20.508,-18.066
1643749427.084,20.508,25.391,26.855,20.996,-35.645
1643749427.088,20.996,26.367,25.879,29.297,-25.391
1643749427.092,18.555,26.855,28.320,32.227,54.688
1643749427.095,22.949,27.344,22.461,20.996,46.387
1643749427.099,28.809,25.879,17.090,11.719,44.434
1643749427.103,24.414,22.461,23.438,17.578,68.359
1643749427.107,19.043,21.973,25.879,25.879,36.133
1643749427.111,13.184,20.508,26.367,19.043,29.297
1643749427.114,11.719,23.438,28.320,12.207,40.039
1643749427.118,10.742,26.855,31.738,18.555,25.391
1643749427.122,13.672,28.320,30.762,25.391,-9.766
1643749427.126,15.137,27.832,19.043,19.531,36.133
1643749427.130,14.648,23.438,22.461,12.695,83.496
1643749427.134,20.020,24.902,34.668,21.484,67.871
1643749427.138,21.973,29.297,32.715,30.762,37.109
1643749427.141,24.902,30.273,30.273,26.855,28.809
1643749427.145,24.902,27.832,30.273,17.578,38.086
1643749427.149,16.113,26.367,30.273,11.719,9.766
1643749427.153,16.113,26.855,31.738,19.043,-3.418
1643749427.157,26.367,27.832,28.320,21.973,30.762
1643749427.173,27.832,29.297,25.391,16.602,34.180
1643749427.177,23.926,30.762,25.879,16.113,6.348
1643749427.181,26.367,32.715,27.344,26.855,-4.883
1643749427.185,25.879,29.785,25.879,37.598,47.363
1643749427.189,25.391,26.367,18.066,31.250,103.516
1643749427.193,27.344,26.855,20.996,22.461,53.711
1643749427.197,26.367,28.320,33.691,21.973,2.930
1643749427.200,29.785,28.320,36.133,32.227,-13.672
1643749427.204,27.832,25.391,32.227,30.762,33.203
1643749427.208,26.367,28.809,31.250,18.555,-21.973
1643749427.212,25.879,30.762,29.297,15.137,-32.715
1643749427.216,27.344,32.227,26.367,20.020,56.641
1643749427.218,31.250,32.715,24.414,22.461,53.711
1643749427.222,37.109,30.273,27.832,20.020,11.230
1643749427.226,44.434,31.250,32.715,18.066,-18.555
1643749427.230,38.574,32.227,23.438,18.555,16.602
1643749427.234,37.598,31.738,19.043,20.508,25.391
1643749427.238,41.504,32.227,27.832,12.207,7.324
1643749427.242,34.180,31.738,27.344,11.719,-18.555
1643749427.245,15.137,30.273,20.020,22.461,-28.320
1643749427.249,7.812,26.855,21.973,37.109,20.996
1643749427.253,9.766,27.344,28.809,35.645,25.391
1643749427.257,8.789,30.273,28.320,26.855,-10.742
1643749427.261,14.160,28.320,27.344,30.762,-22.949
1643749427.263,15.625,29.785,28.809,35.645,13.184
1643749427.267,18.555,31.738,29.297,31.250,67.871
1643749427.271,26.855,31.738,30.273,22.461,56.152
1643749427.275,25.391,27.832,27.344,20.020,23.438
1643749427.279,21.484,24.414,24.414,25.879,19.531
1643749427.283,27.832,23.438,31.738,32.715,70.312
1643749427.287,24.414,22.949,34.668,20.020,59.082
1643749427.290,19.531,26.367,31.250,12.695,84.473
1643749427.294,26.855,29.297,32.715,28.809,82.520
1643749427.298,28.320,30.273,32.715,38.086,30.762
1643749427.302,27.344,31.738,30.273,29.785,32.227
1643749427.306,26.367,28.320,31.250,22.461,11.719
1643749427.308,22.461,27.344,30.762,23.438,22.461
1643749427.312,23.926,29.297,24.414,28.320,21.973
1643749427.316,23.926,28.320,25.879,24.902,73.730
1643749427.320,18.066,23.926,34.668,10.742,50.781
1643749427.324,22.949,22.461,34.668,16.602,10.254
1643749427.328,33.203,24.902,33.691,28.809,72.266
1643749427.332,30.273,27.344,32.715,26.367,67.383
1643749427.335,26.367,31.250,30.273,15.625,-3.906
1643749427.339,28.809,25.391,26.855,16.602,-7.324
1643749427.343,26.855,27.344,20.996,26.855,21.973
1643749427.347,27.344,34.668,18.066,31.738,3.906
1643749427.351,31.250,29.785,20.508,26.367,0.488
1643749427.353,26.855,12.695,25.879,15.625,20.508
1643749427.357,30.762,8.301,30.273,24.414,21.973
1643749427.361,28.320,28.809,31.250,32.715,0.977
1643749427.365,17.090,40.039,34.180,23.438,19.531
1643749427.369,11.719,36.133,36.621,11.230,-31.250
1643749427.373,19.531,36.621,36.621,18.555,-5.371
1643749427.377,27.832,42.480,36.133,30.273,28.320
1643749427.380,22.461,43.457,33.203,26.855,-8.789
1643749427.384,30.762,42.969,31.250,20.508,77.148
1643749427.388,37.598,42.969,22.461,20.508,32.715
1643749427.392,24.902,41.016,19.531,28.320,16.113
1643749427.396,21.484,38.574,26.855,32.715,87.891
1643749427.398,25.879,38.574,31.738,20.996,47.363
1643749427.402,22.461,41.016,33.691,17.578,18.555
1643749427.406,20.508,41.504,30.762,26.855,-3.906
1643749427.410,24.902,41.504,31.250,30.273,-12.207
1643749427.414,30.273,40.039,35.156,23.926,-6.836
1643749427.418,30.273,37.109,34.180,19.043,-0.488
1643749427.422,30.762,41.016,35.156,29.785,62.988
1643749427.425,31.738,42.969,32.715,37.598,115.723
1643749427.429,27.344,43.457,28.320,35.645,70.801
1643749427.433,23.438,42.480,33.691,26.367,9.277
1643749427.437,21.484,43.945,39.062,24.414,23.438
1643749427.441,22.949,42.480,39.551,32.227,27.832
1643749427.443,32.227,39.551,38.086,31.738,39.062
1643749427.447,38.086,40.527,42.480,22.461,31.738
1643749427.451,38.574,45.898,48.340,23.438,-19.043
1643749427.455,37.109,54.199,51.758,31.250,43.945
1643749427.459,25.391,43.457,44.922,23.926,45.898
1643749427.463,0.977,34.668,41.016,-5.371,21.484
1643749427.467,-16.602,38.086,42.480,-23.438,29.785
1643749427.470,-24.902,45.410,50.293,-28.809,23.926
1643749427.474,-33.203,57.617,66.406,-42.969,21.484
1643749427.478,-53.711,53.711,65.430,-66.895,1.953
1643749427.482,-71.289,53.711,69.336,-85.938,34.668
1643749427.486,-92.285,63.965,75.684,-105.957,55.176
1643749427.489,-104.492,75.684,77.637,-104.980,6.836
1643749427.493,-115.234,77.637,81.055,-106.445,51.270
1643749427.497,-129.395,81.055,81.055,-128.418,101.074
1643749427.501,-134.766,79.102,80.566,-133.789,38.086
1643749427.505,-132.324,76.660,76.660,-124.023,0.488
1643749427.509,-122.070,78.613,76.172,-112.305,62.500
1643749427.513,-100.586,77.637,77.637,-106.934,62.988
1643749427.516,-93.750,78.125,74.219,-111.328,-52.734
1643749427.520,-105.469,68.848,71.777,-104.492,-16.602
1643749427.524,-110.840,67.383,69.336,-94.727,50.781
1643749427.528,-106.445,70.312,65.918,-94.727,21.973
1643749427.532,-87.891,75.684,62.988,-84.473,-17.578
1643749427.533,-72.754,72.266,64.453,-64.941,4.395
1643749427.537,-65.918,59.570,66.895,-53.711,74.219
1643749427.541,-48.828,61.035,67.871,-46.387,61.523
1643749427.545,-35.156,62.988,64.941,-41.504,-13.184
1643749427.549,-33.203,58.594,58.105,-27.832,16.602
1643749427.553,-29.297,55.664,50.781,-6.836,57.129
1643749427.557,-13.672,51.270,50.293,-2.930,49.316
1643749427.560,3.906,44.922,47.852,-2.930,1.953
1643749427.564,17.090,41.992,43.457,12.695,34.180
1643749427.568,31.738,43.457,40.039,31.250,39.062
1643749427.572,44.922,38.574,35.645,44.922,5.371
1643749427.576,49.805,29.785,23.438,43.457,43.457
1643749427.593,55.176,22.949,11.230,50.293,2.930
1643749427.597,64.941,19.531,14.160,65.918,43.457
1643749427.601,74.219,16.602,19.043,74.219,80.078
1643749427.605,74.707,14.160,17.090,74.707,45.898
1643749427.609,73.730,9.277,15.625,73.730,26.367
1643749427.613,75.195,5.859,11.230,82.031,36.133
1643749427.617,70.801,6.348,6.836,91.309,70.801
1643749427.620,67.871,2.441,5.859,87.402,17.090
1643749427.624,70.801,-1.465,6.348,73.242,18.555
1643749427.628,78.613,-1.953,8.789,74.219,40.039
1643749427.632,81.055,-2.441,6.836,87.402,32.227
1643749427.636,74.219,-4.883,-2.441,81.055,62.988
1643749427.638,81.543,-5.371,-4.395,78.613,47.363
1643749427.642,93.262,-6.836,3.906,86.914,-27.832
1643749427.646,85.938,-7.324,5.859,84.473,-26.367
1643749427.650,80.566,-6.836,5.859,83.984,0.000
1643749427.654,82.031,-4.395,6.348,81.543,33.203
1643749427.658,81.543,-1.465,2.441,83.984,5.859
1643749427.662,87.402,-0.977,0.488,96.191,4.883
1643749427.665,84.473,-1.465,0.488,95.703,42.480
1643749427.669,79.590,1.465,0.000,85.938,55.664
1643749427.673,83.496,3.906,0.000,80.078,47.852
1643749427.677,82.520,3.906,0.977,87.402,17.090
1643749427.681,85.449,0.000,-1.465,97.656,61.035
1643749427.683,88.867,-2.441,-11.230,88.867,113.770
1643749427.687,87.891,0.488,-5.371,76.172,107.910
1643749427.691,85.449,3.418,5.859,83.496,80.078
1643749427.695,75.195,6.836,8.789,89.844,81.543
1643749427.699,73.242,6.836,10.254,79.590,84.961
1643749427.703,80.566,8.301,13.184,69.824,15.625
1643749427.707,74.707,10.742,13.184,68.359,4.883
1643749427.710,66.406,11.719,7.324,73.730,24.902
1643749427.714,74.219,11.230,8.301,73.242,10.254
1643749427.718,72.754,8.301,15.625,63.477,14.160
1643749427.722,62.988,7.324,16.113,58.594,-10.254
1643749427.726,62.500,7.324,14.648,65.430,19.043
1643749427.729,54.688,8.789,9.277,67.383,55.176
1643749427.733,51.758,12.207,14.160,55.664,51.758
1643749427.737,48.828,15.625,20.508,44.922,-20.996
1643749427.741,50.781,16.602,19.531,50.293,1.465
1643749427.745,57.617,16.602,22.461,59.082,56.641
1643749427.749,55.176,18.555,22.949,53.223,39.062
1643749427.753,52.246,19.531,19.043,40.039,14.648
1643749427.756,45.898,18.555,19.531,43.457,8.789
1643749427.760,51.270,19.531,23.926,56.641,17.090
1643749427.764,46.875,24.414,22.461,52.246,18.066
1643749427.768,37.109,25.391,21.484,41.016,82.031
1643749427.772,43.945,23.438,20.020,42.969,62.012
1643749427.773,46.875,24.414,13.672,49.316,14.160
1643749427.777,46.875,24.414,12.207,46.875,59.082
1643749427.781,48.828,25.391,21.484,41.016,44.922
1643749427.785,40.527,26.855,30.762,39.062,21.973
1643749427.789,29.785,21.484,27.832,38.574,30.762
1643749427.793,35.156,21.484,24.414,40.527,-2.441
1643749427.797,37.598,26.367,28.320,36.621,-43.457
1643749427.800,34.180,28.320,28.320,27.344,-8.301
1643749427.804,27.344,29.297,26.855,26.855,40.527
1643749427.808,29.785,28.320,26.367,39.551,-12.695
1643749427.812,47.363,28.809,27.344,40.527,11.719
1643749427.816,41.016,28.320,24.902,29.297,1.465
1643749427.817,31.250,29.785,18.555,29.785,-48.828
1643749427.821,35.645,32.715,19.531,38.086,-6.348
1643749427.825,28.320,29.785,24.902,35.645,11.230
1643749427.829,21.484,27.832,27.832,22.461,53.223
1643749427.833,33.691,30.762,24.902,22.949,39.551
1643749427.837,34.668,29.297,23.926,35.645,23.438
1643749427.841,31.738,28.809,30.273,38.574,37.109
1643749427.844,36.133,27.832,34.180,28.809,75.684
1643749427.848,30.273,26.367,31.250,21.484,116.699
1643749427.852,26.855,28.809,30.273,35.645,58.105
1643749427.856,27.344,31.250,32.715,42.969,42.480
1643749427.860,28.809,29.785,35.156,30.273,86.426
1643749427.863,21.484,29.785,26.367,20.020,62.988
1643749427.867,17.578,36.133,19.531,26.367,-15.625
1643749427.871,36.621,33.691,33.691,43.457,-26.855
1643749427.875,40.039,33.691,36.133,39.062,24.902
1643749427.879,28.809,36.621,35.645,21.973,39.551
1643749427.883,35.645,46.387,48.340,22.949,58.105
1643749427.887,25.879,49.316,49.805,27.832,74.219
1643749427.890,-0.488,32.715,44.922,13.184,46.387
1643749427.894,-10.254,37.598,39.551,-6.836,45.410
1643749427.898,-10.254,47.852,44.434,-18.555,76.660
1643749427.902,-12.207,54.199,53.223,-20.996,43.457
1643749427.906,-23.438,64.453,64.453,-21.973,9.277
1643749427.907,-47.852,63.477,66.406,-43.945,-15.137
1643749427.911,-54.688,57.617,63.965,-60.059,16.602
1643749427.915,-49.316,61.035,70.312,-53.711,49.316
1643749427.919,-67.383,64.453,72.754,-56.152,18.066
1643749427.923,-76.172,68.848,65.918,-65.918,23.438
1643749427.927,-72.266,68.359,66.406,-67.871,39.551
1643749427.931,-65.430,67.383,68.359,-64.453,9.766
1643749427.934,-49.316,66.406,52.734,-51.270,38.086
1643749427.938,-43.457,56.152,42.969,-37.109,48.340
1643749427.942,-33.691,48.340,48.828,-32.227,4.883
1643749427.946,-12.207,45.898,49.316,-23.926,-0.488
1643749427.950,-0.977,41.016,36.621,-3.418,31.738
1643749427.954,8.789,33.203,22.949,14.160,20.020
1643749427.958,26.855,27.832,22.461,24.902,1.953
1643749427.962,38.086,23.438,33.203,31.250,0.000
1643749427.966,43.945,20.020,34.668,40.039,-7.324
1643749427.970,38.574,20.020,24.902,47.852,44.922
1643749427.974,46.387,18.066,20.508,49.805,40.527
1643749427.978,62.012,17.578,21.973,49.805,-16.602
1643749427.981,58.105,21.484,16.602,56.152,25.391
1643749427.985,62.012,20.020,11.719,68.848,59.570
1643749427.989,73.242,16.602,12.207,73.242,19.043
1643749427.993,77.148,18.066,12.207,73.242,25.879
1643749427.997,68.359,17.578,6.348,72.754,15.137
1643749428.013,66.895,17.578,8.301,75.684,47.852
1643749428.017,78.125,16.113,15.137,77.637,44.434
1643749428.021,77.148,15.137,19.043,67.871,-30.762
1643749428.025,77.637,16.113,20.508,67.871,-18.555
1643749428.029,72.754,17.090,16.113,81.543,21.484
1643749428.033,62.500,19.531,18.555,82.520,18.555
1643749428.037,62.988,19.531,18.555,64.941,-11.719
1643749428.040,59.082,18.066,15.137,55.176,-23.926
1643749428.044,51.758,16.113,17.578,66.406,17.090
1643749428.048,50.293,15.625,17.090,65.430,44.434
1643749428.052,54.688,16.113,6.348,48.828,44.434
1643749428.056,54.688,15.625,9.766,37.109,42.969
1643749428.058,45.898,17.578,20.508,38.086,53.223
1643749428.062,41.504,17.090,20.996,44.434,45.410
1643749428.066,33.203,19.043,19.043,44.922,33.691
1643749428.070,27.832,23.438,18.555,37.598,-8.789
1643749428.074,37.109,22.949,21.973,40.527,8.789
1643749428.078,47.852,21.484,23.438,54.688,19.043
1643749428.082,50.293,22.461,23.926,54.688,-18.555
1643749428.085,48.828,24.414,20.508,42.480,1.953
1643749428.089,49.316,26.855,21.973,37.109,16.113
1643749428.093,51.270,29.297,22.461,41.016,9.277
1643749428.097,45.410,33.203,16.113,32.715,32.227
1643749428.101,45.410,32.227,20.996,20.996,87.891
1643749428.103,57.129,30.273,20.996,20.508,62.500
1643749428.107,53.711,32.227,15.625,32.715,33.691
1643749428.111,37.109,33.203,22.461,48.340,75.195
1643749428.115,26.367,32.715,28.809,41.016,78.125
1643749428.119,29.785,32.715,27.344,30.273,30.762
1643749428.123,27.832,31.738,27.344,41.504,-14.648
1643749428.127,20.996,28.809,30.762,54.688,20.020
1643749428.130,20.020,26.367,24.902,48.828,72.266
1643749428.134,22.461,27.344,19.043,23.926,77.148
1643749428.138,16.602,26.367,23.438,15.137,64.941
1643749428.142,20.996,26.367,28.809,27.344,36.133
1643749428.146,31.738,26.855,34.180,31.250,26.855
1643749428.148,28.320,25.879,37.598,21.973,46.875
1643749428.152,27.832,29.297,31.738,18.066,45.410
1643749428.156,32.227,33.203,24.414,30.762,14.648
1643749428.160,30.762,31.738,28.320,38.086,45.410
1643749428.164,25.879,30.762,31.250,25.879,24.414
1643749428.168,32.715,34.668,30.273,23.438,17.090
1643749428.172,30.762,36.621,33.203,32.227,58.594
1643749428.175,29.297,36.621,39.062,37.109,40.527
1643749428.179,35.645,39.551,33.691,32.227,-2.930
1643749428.183,30.273,41.992,23.926,23.438,29.297
1643749428.187,27.344,41.992,31.738,29.785,59.570
1643749428.191,26.367,38.086,36.133,35.156,64.453
1643749428.194,25.391,36.621,34.180,31.738,21.973
1643749428.198,25.879,38.086,30.762,21.973,17.090
1643749428.202,21.484,35.645,28.320,20.996,70.801
1643749428.206,24.902,33.203,30.273,33.203,43.457
1643749428.210,22.461,34.668,24.414,34.180,-11.230
1643749428.214,16.113,35.645,23.926,23.926,31.250
1643749428.218,22.461,35.156,34.180,29.297,46.875
1643749428.221,20.508,38.086,36.133,31.250,-13.672
1643749428.225,14.648,38.086,34.668,30.762,37.598
1643749428.229,14.648,33.691,32.227,28.320,26.367
1643749428.233,23.438,33.203,32.227,20.020,-12.695
1643749428.237,24.902,33.203,30.273,27.344,-8.789
1643749428.238,19.043,32.227,26.855,37.598,23.438
1643749428.242,19.043,34.668,31.738,35.156,91.797
1643749428.246,15.625,41.016,34.668,23.438,59.082
1643749428.250,21.973,43.457,36.133,22.461,14.160
1643749428.254,20.996,39.062,36.621,30.762,48.828
1643749428.258,16.602,35.156,34.668,26.367,44.434
1643749428.262,21.973,36.621,36.621,17.090,49.316
1643749428.265,24.414,38.574,37.109,15.137,4.395
1643749428.269,21.973,35.156,32.227,25.391,-43.457
1643749428.273,29.297,33.691,26.367,35.156,30.273
1643749428.277,34.668,33.691,27.832,27.832,20.020
1643749428.281,28.320,30.273,35.156,20.508,11.230
1643749428.283,28.320,30.762,34.180,25.879,47.363
1643749428.287,25.391,31.738,27.832,30.762,41.016
1643749428.291,25.391,31.738,26.855,25.879,31.250
1643749428.295,26.367,30.273,29.785,19.531,15.625
1643749428.299,26.855,27.832,28.809,29.785,-18.066
1643749428.303,29.297,27.832,21.973,42.480,11.230
1643749428.307,36.133,30.762,22.461,31.738,42.480
1643749428.310,37.109,30.762,27.344,22.461,-4.395
1643749428.314,32.715,30.762,25.391,27.832,-1.953
1643749428.318,31.738,30.273,28.320,28.320,41.992
1643749428.322,29.297,26.367,34.180,19.531,51.270
1643749428.326,31.738,22.461,24.902,9.766,47.363
1643749428.343,28.320,20.020,23.926,3.906,18.066
1643749428.347,20.508,22.461,33.691,12.207,46.875
1643749428.351,21.973,23.438,35.156,19.531,80.566
1643749428.355,26.855,22.949,32.227,13.672,43.457
1643749428.359,19.531,25.879,30.762,12.695,56.152
1643749428.363,16.113,24.902,30.273,19.531,14.648
1643749428.367,21.973,25.391,23.926,19.531,22.461
1643749428.370,24.902,27.344,22.461,14.160,41.504
1643749428.374,28.809,23.926,25.391,14.160,54.199
1643749428.378,25.879,23.926,23.926,19.531,22.461
1643749428.382,20.020,20.996,29.297,23.926,-5.371
1643749428.386,18.555,16.602,36.133,20.508,46.387
1643749428.388,15.625,23.438,33.691,15.625,17.090
1643749428.392,18.066,25.879,30.762,12.207,28.320
1643749428.396,19.531,24.902,29.297,18.066,89.844
1643749428.400,25.879,27.832,29.785,25.879,92.773
1643749428.404,30.273,30.762,31.738,19.043,65.430
1643749428.408,28.320,31.738,27.832,20.996,29.785
1643749428.412,20.996,35.156,20.996,25.879,51.270
1643749428.415,18.555,36.133,20.508,27.344,81.055
1643749428.419,28.320,33.691,23.926,31.250,56.152
1643749428.423,23.926,35.156,28.320,20.020,1.465
1643749428.427,18.555,33.691,29.297,18.066,-58.594
1643749428.431,19.043,30.273,27.832,26.367,12.207
1643749428.433,20.508,31.250,29.785,21.973,-4.395
1643749428.437,16.602,32.715,28.809,13.184,11.230
1643749428.441,10.742,28.320,27.832,18.555,-3.418
1643749428.445,9.766,26.855,26.855,28.809,-26.855
1643749428.449,7.324,29.297,25.879,24.902,20.020
1643749428.453,10.742,29.297,30.273,20.020,25.879
1643749428.457,14.648,25.879,30.762,17.578,7.324
1643749428.460,13.672,25.879,24.414,17.090,-8.789
1643749428.464,22.949,27.344,28.320,22.461,16.602
1643749428.468,27.832,29.297,33.203,20.020,57.129
1643749428.472,22.461,34.668,27.344,19.043,43.457
1643749428.476,27.344,32.715,24.902,27.832,52.246
1643749428.478,29.785,28.809,27.344,31.738,95.703
1643749428.482,28.809,30.762,27.832,20.996,61.523
1643749428.486,24.414,32.227,28.320,7.812,-18.555
1643749428.490,19.531,31.250,27.344,13.184,-49.805
1643749428.494,24.902,29.297,27.344,22.949,35.645
1643749428.498,25.391,31.250,20.508,18.066,42.969
1643749428.502,30.273,31.250,19.043,8.789,-31.738
1643749428.505,30.273,29.297,28.809,12.207,52.246
1643749428.509,18.066,28.809,29.785,20.996,104.004
1643749428.513,8.789,26.855,25.879,17.578,49.316
1643749428.517,14.160,24.902,25.879,12.207,30.273
1643749428.521,19.531,26.855,23.438,11.230,35.645
1643749428.538,20.508,27.344,25.391,15.625,42.480
1643749428.542,16.113,24.902,34.668,23.438,47.852
1643749428.546,7.324,24.902,27.344,14.648,23.438
1643749428.550,9.766,26.367,24.902,3.418,8.301
1643749428.554,10.742,26.367,32.227,9.277,8.301
1643749428.558,12.207,25.391,31.738,18.066,63.965
1643749428.562,22.461,24.902,27.344,14.648,45.898
1643749428.565,18.555,27.344,26.367,4.883,11.719
1643749428.569,9.277,30.762,26.855,8.301,62.500
1643749428.573,10.742,28.809,24.414,20.020,27.832
1643749428.577,21.484,27.832,23.926,19.531,1.465
1643749428.581,21.484,27.832,25.879,16.113,13.184
1643749428.567,9.766,29.297,18.066,21.484,19.531
1643749428.571,9.277,31.250,11.719,27.344,25.879
1643749428.575,12.207,30.762,20.020,26.855,29.785
1643749428.579,12.695,28.809,30.273,17.090,45.898
1643749428.583,15.625,28.320,33.691,15.625,42.480
1643749428.587,17.090,30.762,27.344,27.832,20.020
1643749428.591,21.973,30.273,26.367,33.203,46.875
1643749428.594,29.297,28.809,30.273,26.367,75.195
1643749428.598,28.320,29.785,27.344,23.926,32.715
1643749428.602,33.691,26.367,21.973,38.574,-2.930
1643749428.606,37.598,22.461,20.508,44.922,42.969
1643749428.610,30.762,25.879,24.414,32.227,21.973
1643749428.613,26.367,30.762,29.785,20.508,-18.555
1643749428.617,23.926,26.855,33.691,24.902,15.625
1643749428.621,16.113,23.438,33.203,28.809,35.156
1643749428.625,14.160,26.367,31.738,22.461,73.730
1643749428.629,20.020,25.391,30.273,20.020,20.020
1643749428.633,28.320,22.949,31.250,29.297,-47.363
1643749428.637,23.926,23.926,32.715,31.250,28.320
1643749428.640,24.902,27.344,33.203,26.367,24.414
1643749428.644,30.762,23.926,29.297,18.555,-18.555
1643749428.648,11.719,22.949,20.996,11.230,51.758
1643749428.652,4.883,23.926,21.973,14.648,72.754
1643749428.656,25.879,22.949,29.785,24.902,31.738
1643749428.673,23.926,24.414,30.273,19.531,24.902
1643749428.677,18.555,23.438,30.273,12.207,43.457
1643749428.681,17.090,23.438,27.832,21.484,85.449
1643749428.685,15.625,21.973,23.438,28.809,46.875
1643749428.689,18.555,20.508,26.855,27.344,31.738
1643749428.693,18.555,22.949,29.297,20.020,15.625
1643749428.697,25.879,27.344,28.320,19.531,13.184
1643749428.700,23.926,26.367,25.879,24.902,33.691
1643749428.704,24.902,24.414,22.461,28.809,40.527
1643749428.708,33.691,26.367,25.391,26.367,21.973
1643749428.712,25.879,31.250,27.344,23.926,40.039
1643749428.716,21.973,31.250,25.391,34.180,85.449
1643749428.718,26.855,27.344,25.391,36.621,44.434
1643749428.722,22.949,27.832,29.785,24.414,22.949
1643749428.726,21.484,29.785,31.738,20.020,15.625
1643749428.730,18.066,26.367,31.738,24.902,-12.695
1643749428.734,17.090,25.391,32.715,27.832,17.578
1643749428.738,24.902,27.344,35.645,23.438,34.180
1643749428.742,31.250,24.902,33.203,19.531,42.969
1643749428.745,34.180,24.902,27.344,25.391,55.176
1643749428.749,34.668,28.809,25.391,38.574,11.230
1643749428.753,32.715,28.320,28.320,37.598,-48.340
1643749428.757,25.391,30.273,29.785,28.320,-13.184
1643749428.761,18.066,32.227,26.855,26.855,52.246
1643749428.763,23.438,33.203,26.855,26.367,35.645
1643749428.767,31.250,31.738,27.832,27.344,34.668
1643749428.771,25.391,31.738,25.879,19.043,-6.836
1643749428.775,23.438,30.762,22.949,14.160,-25.879
1643749428.779,21.973,29.785,19.531,24.414,58.105
1643749428.783,28.320,29.785,19.043,28.809,49.805
1643749428.787,30.762,26.855,24.902,18.555,29.297
1643749428.790,30.273,24.414,26.855,18.066,24.414
1643749428.794,28.809,25.879,22.461,26.855,21.484
1643749428.798,24.902,30.762,26.367,26.855,71.777
1643749428.802,31.250,31.738,35.156,21.484,32.227
1643749428.806,31.250,28.809,34.668,18.555,34.180
1643749428.809,22.949,30.762,28.320,20.996,74.707
1643749428.813,20.996,32.227,27.344,28.320,18.066
1643749428.817,26.367,31.738,27.832,25.879,28.809
1643749428.821,27.344,32.715,25.879,16.113,60.059
1643749428.825,24.414,28.809,27.832,20.020,11.719
1643749428.829,30.273,25.879,23.926,29.297,5.859
1643749428.833,29.785,26.855,22.461,25.391,6.836
1643749428.836,21.973,24.414,30.762,16.113,16.113
1643749428.840,23.926,24.414,33.691,13.672,33.691
1643749428.844,31.250,28.320,32.715,20.020,-18.066
1643749428.848,30.762,27.832,29.297,28.809,-12.695
1643749428.852,25.879,26.367,25.879,22.949,-5.371
1643749428.853,24.414,26.855,27.832,15.137,22.461
1643749428.857,19.531,27.344,25.879,22.461,47.363
1643749428.861,24.902,25.391,20.996,28.809,58.594
1643749428.865,30.273,23.438,27.344,21.973,34.180
1643749428.869,28.809,23.926,28.320,17.090,3.418
1643749428.873,27.344,27.344,25.391,27.832,101.074
1643749428.877,24.902,26.855,33.203,32.715,129.395
1643749428.880,22.461,24.414,32.715,25.879,57.129
1643749428.884,22.461,25.391,32.715,14.648,-7.812
1643749428.888,20.508,24.414,36.621,13.184,-26.855
1643749428.892,25.879,24.902,31.250,23.438,69.336
1643749428.896,31.738,29.785,28.320,26.367,65.918
1643749428.898,22.949,30.762,28.809,20.996,16.602
1643749428.902,19.043,31.250,26.855,20.020,31.738
1643749428.906,18.066,33.691,26.367,22.949,38.086
1643749428.910,21.484,31.738,26.367,23.438,12.695
1643749428.914,22.461,29.297,25.391,16.602,-1.953
1643749428.918,23.438,25.879,27.344,12.695,9.277
1643749428.922,20.996,24.414,23.926,28.320,5.859
1643749428.925,19.531,27.832,26.855,40.039,42.480
1643749428.929,21.973,29.297,32.227,27.832,43.945
1643749428.933,22.461,27.344,29.785,15.137,11.230
1643749428.937,20.996,27.344,30.762,22.461,-8.789
1643749428.941,19.043,28.809,29.785,32.715,26.855
1643749428.943,20.508,26.855,26.855,28.809,71.777
1643749428.947,26.367,26.367,22.949,20.508,50.293
1643749428.951,20.996,27.832,21.973,24.902,56.152
1643749428.955,16.113,29.785,27.344,32.227,43.945
1643749428.959,21.484,31.250,29.785,29.297,34.180
1643749428.963,26.367,30.762,31.250,20.508,97.656
1643749428.967,27.832,29.785,34.180,19.531,23.926
1643749428.970,29.297,32.227,36.133,27.832,-13.184
1643749428.974,36.621,32.715,32.227,31.250,71.777
1643749428.978,46.387,30.273,29.297,31.250,50.293
1643749428.982,40.527,28.809,30.273,24.414,3.906
1643749428.986,36.133,28.809,28.320,22.461,17.578
1643749428.988,43.457,30.273,21.484,32.227,58.105
1643749428.992,47.363,33.691,21.484,25.879,32.715
1643749428.996,39.551,33.691,25.391,18.555,-19.043
1643749429.000,26.367,31.250,31.250,27.344,1.465
1643749429.004,20.508,29.785,35.156,39.062,58.594
1643749429.008,14.160,27.832,35.645,39.551,31.250
1643749429.012,12.695,27.344,34.180,30.273,-34.180
1643749429.015,9.766,29.297,33.203,29.785,-15.137
1643749429.019,12.207,28.809,29.297,37.109,8.789
1643749429.023,23.926,25.879,24.902,34.180,50.293
1643749429.027,17.578,26.855,21.484,21.973,61.523
1643749429.031,12.207,27.832,24.414,21.484,37.109
1643749429.033,20.508,27.344,28.809,30.762,54.688
1643749429.037,29.785,26.855,27.344,31.250,51.758
1643749429.041,28.320,29.297,25.879,19.043,27.832
1643749429.045,24.414,32.227,22.949,13.672,-10.742
1643749429.049,25.391,30.762,26.855,22.461,-28.809
1643749429.053,24.902,27.344,25.879,30.273,-5.859
1643749429.057,23.926,26.367,22.461,26.855,27.344
1643749429.060,23.438,29.785,29.785,16.113,17.578
1643749429.064,21.484,30.273,27.832,17.090,21.484
1643749429.068,18.555,26.367,25.391,26.367,-4.883
1643749429.072,16.602,26.367,29.297,25.879,-27.832
1643749429.076,14.648,28.809,27.832,14.648,-9.277
1643749429.078,21.973,30.273,25.879,15.137,-19.043
1643749429.082,24.414,33.691,27.832,22.949,29.785
1643749429.086,23.438,31.250,26.367,22.949,64.941
1643749429.090,22.461,28.320,17.578,20.508,41.504
1643749429.094,24.414,32.227,19.043,21.484,19.531
1643749429.098,32.227,32.227,29.785,30.273,19.531
1643749429.102,33.203,32.715,30.762,32.715,-3.906
1643749429.105,29.785,34.180,21.973,21.484,35.645
1643749429.109,35.645,33.203,18.555,16.602,90.820
1643749429.113,41.992,34.180,26.855,25.391,62.988
1643749429.117,36.133,32.227,30.273,36.133,79.102
1643749429.121,31.250,29.297,27.832,35.156,32.715
1643749429.138,38.086,29.297,30.273,28.809,14.648
1643749429.142,36.621,29.785,31.738,31.250,39.062
1643749429.146,34.668,30.762,28.809,38.574,8.301
1643749429.150,41.016,31.250,25.879,35.156,38.574
1643749429.154,35.645,28.320,26.367,22.461,14.160
1643749429.158,25.879,30.273,27.832,20.508,-6.836
1643749429.162,23.926,29.785,27.344,26.855,54.199
1643749429.165,29.297,26.367,26.855,30.273,78.613
1643749429.169,33.691,28.809,24.414,26.855,49.805
1643749429.173,35.645,31.738,21.484,21.973,6.836
1643749429.177,32.715,31.250,26.367,24.902,7.812
1643749429.181,30.762,30.762,27.832,32.715,62.988
1643749429.184,36.133,32.227,25.391,31.738,60.059
1643749429.188,36.621,33.203,27.832,23.438,43.457
1643749429.192,28.809,29.297,28.809,22.461,20.020
1643749429.196,28.320,25.879,32.227,36.133,-9.766
1643749429.200,35.645,24.902,27.832,31.738,33.691
1643749429.204,40.527,23.926,23.438,18.555,52.734
1643749429.208,41.504,23.926,29.297,21.484,-6.348
1643749429.211,34.668,26.367,26.367,28.809,-30.273
1643749429.215,26.367,25.879,19.531,26.367,19.043
1643749429.219,25.879,24.414,26.855,15.625,32.715
1643749429.223,29.297,22.949,29.785,14.160,71.777
1643749429.227,26.855,22.949,25.391,23.926,50.781
1643749429.228,30.762,27.344,21.484,28.320,26.367
1643749429.232,43.945,26.855,27.832,25.879,72.266
1643749429.236,39.062,25.879,30.273,23.926,14.648
1643749429.240,34.180,26.855,27.344,33.203,6.836
1643749429.244,42.480,26.367,30.762,41.504,7.812
1643749429.248,40.039,28.320,30.762,30.762,37.598
1643749429.252,29.297,34.180,31.250,19.531,21.973
1643749429.255,32.227,36.621,31.738,24.414,-18.066
1643749429.259,34.180,34.180,31.250,29.785,4.395
1643749429.263,23.926,31.250,23.926,22.461,10.742
1643749429.267,24.902,27.832,19.043,21.484,15.625
1643749429.271,25.879,27.344,23.926,24.902,2.441
1643749429.273,20.020,25.879,29.297,28.809,31.738
1643749429.277,22.461,23.438,32.715,28.809,81.543
1643749429.281,23.926,25.391,32.227,22.461,74.219
1643749429.285,19.043,28.809,28.809,17.578,71.777
1643749429.289,13.184,27.832,27.344,18.555,83.496
1643749429.293,17.090,26.855,26.367,26.367,89.355
1643749429.297,16.113,29.297,23.438,21.973,47.852
1643749429.300,17.578,29.297,25.879,17.090,9.766
1643749429.304,25.391,29.297,29.297,28.320,18.066
1643749429.308,28.320,30.762,23.926,37.109,14.160
1643749429.312,32.715,29.297,20.508,30.762,77.637
1643749429.316,31.250,29.297,24.414,16.113,33.203
1643749429.318,26.367,30.762,29.297,11.719,-4.395
1643749429.322,19.043,29.297,28.320,20.996,106.934
1643749429.326,12.695,28.809,26.855,22.949,96.191
1643749429.330,18.066,27.832,29.297,15.137,45.898
1643749429.334,22.949,29.785,32.227,19.043,9.277
1643749429.338,20.508,32.227,28.320,29.297,-16.113
1643749429.342,15.625,30.762,26.367,30.273,56.152
1643749429.345,15.625,31.738,29.785,21.973,51.758
1643749429.349,16.602,31.250,30.762,15.137,4.883
1643749429.353,19.043,28.809,28.809,20.020,52.246
1643749429.357,24.414,31.738,21.973,28.320,60.547
1643749429.361,24.414,33.691,21.484,25.391,35.645
1643749429.363,18.066,31.738,27.832,12.695,36.133
1643749429.367,19.531,29.297,32.715,14.648,17.090
1643749429.371,20.020,28.320,32.227,28.320,21.973
1643749429.375,16.602,27.832,26.855,24.902,41.504
1643749429.379,12.695,28.809,24.414,15.625,15.137
1643749429.383,10.742,30.762,24.902,21.484,0.488
1643749429.387,13.672,29.785,30.762,35.156,2.441
1643749429.390,22.949,29.785,34.668,33.203,-5.859
1643749429.394,29.297,30.762,35.156,24.902,-14.160
1643749429.398,28.809,29.785,34.668,25.879,34.668
1643749429.402,30.762,24.902,30.273,39.551,75.195
1643749429.406,20.996,23.438,32.227,36.133,95.703
1643749429.408,23.926,28.320,35.156,25.879,76.660
1643749429.412,24.414,31.250,34.668,22.949,31.250
1643749429.416,20.508,30.762,35.645,22.949,-34.668
1643749429.420,24.414,32.715,34.180,31.738,-1.953
1643749429.424,25.879,33.203,31.250,31.738,24.414
1643749429.428,27.344,28.320,34.668,20.020,-24.902
1643749429.432,28.320,41.016,47.852,23.438,-12.207
1643749429.435,20.020,45.898,47.363,30.273,30.762
1643749429.439,9.766,30.762,39.062,21.484,12.695
1643749429.443,-1.465,32.227,39.551,-5.859,-0.977
1643749429.447,-14.160,36.621,41.504,-23.926,45.898
1643749429.451,-36.133,37.109,48.340,-35.156,69.824
1643749429.453,-59.082,46.387,53.711,-56.641,65.918
1643749429.457,-62.012,54.199,72.266,-75.195,64.941
1643749429.461,-77.148,56.152,80.078,-90.820,38.574
1643749429.465,-114.258,61.523,75.684,-116.211,25.391
1643749429.469,-128.906,72.266,82.520,-124.023,28.809
1643749429.473,-131.836,77.148,85.449,-124.023,4.883
1643749429.477,-132.324,82.031,86.914,-141.602,-46.387
1643749429.480,-138.184,83.008,81.543,-140.625,-5.859
1643749429.484,-137.207,83.984,74.219,-122.070,41.992
1643749429.488,-125.000,85.938,77.148,-120.117,54.199
1643749429.492,-118.164,82.520,80.078,-124.023,80.078
1643749429.496,-117.676,82.520,71.777,-121.582,41.992
1643749429.513,-109.375,88.379,70.312,-109.375,45.410
1643749429.517,-99.121,87.891,75.195,-100.586,87.402
1643749429.521,-104.004,77.637,75.684,-112.305,78.613
1643749429.525,-104.492,67.383,72.266,-104.980,33.691
1643749429.529,-108.398,63.477,65.430,-91.797,21.484
1643749429.533,-116.211,65.918,63.477,-95.215,12.695
1643749429.537,-101.562,66.895,62.500,-92.285,5.859
1643749429.540,-82.520,70.801,60.547,-82.031,32.715
1643749429.544,-73.242,70.312,54.688,-62.500,22.461
1643749429.548,-65.918,62.988,58.594,-59.570,20.508
1643749429.552,-53.711,62.500,60.059,-63.965,54.199
1643749429.556,-48.340,58.105,58.105,-61.523,18.555
1643749429.558,-56.641,54.199,56.152,-54.199,33.203
1643749429.562,-51.758,54.199,49.805,-35.156,34.668
1643749429.566,-54.688,49.805,48.340,-41.504,27.344
1643749429.570,-52.734,47.363,45.410,-47.852,82.031
1643749429.574,-34.180,46.875,47.363,-32.715,119.629
1643749429.578,-27.344,48.340,46.875,-17.090,96.191
1643749429.582,-26.855,50.781,43.945,-12.207,74.219
1643749429.585,-15.625,50.781,45.898,-15.625,0.488
1643749429.589,-3.418,46.387,47.363,-2.930,-45.898
1643749429.593,12.695,46.387,40.527,12.695,15.137
1643749429.597,24.902,46.387,40.527,25.391,12.695
1643749429.601,29.297,35.156,44.922,34.180,6.836
1643749429.603,41.992,28.320,41.016,39.062,-21.484
1643749429.607,57.617,28.320,36.621,60.059,-8.301
1643749429.611,73.730,20.020,32.227,72.754,25.391
1643749429.615,83.984,12.695,28.320,77.637,-29.785
1643749429.619,75.195,9.766,25.391,86.426,-18.555
1643749429.623,81.543,8.789,20.508,94.727,21.484
1643749429.627,99.121,9.766,15.625,100.586,10.254
1643749429.630,102.051,7.812,13.184,101.074,56.152
1643749429.634,107.422,2.930,9.766,100.586,36.133
1643749429.638,113.770,-2.930,4.883,105.469,-3.418
1643749429.642,111.816,-3.418,2.441,110.352,58.594
1643749429.646,111.328,-0.977,-1.465,106.445,43.945
1643749429.649,112.793,-2.441,-6.836,99.121,22.949
1643749429.653,104.492,-3.906,-6.836,94.727,16.602
1643749429.657,91.797,-1.465,-4.395,96.191,-0.488
1643749429.661,90.820,-5.859,-0.488,99.609,0.488
1643749429.665,98.145,-7.324,-2.930,89.844,24.902
1643749429.669,106.445,-4.883,-8.789,77.148,43.945
1643749429.673,97.168,-5.859,-8.789,84.473,46.387
1643749429.676,90.820,-5.859,-5.371,95.703,83.496
1643749429.680,97.168,-3.418,-5.371,91.309,61.035
1643749429.684,91.309,-2.441,-8.301,86.914,58.594
1643749429.688,94.238,-3.906,-6.348,92.773,69.336
1643749429.692,99.609,-3.418,-3.906,100.098,83.496
1643749429.693,97.168,-3.418,-1.465,101.074,115.234
1643749429.697,95.703,-3.418,-1.953,94.727,70.801
1643749429.701,95.703,-2.441,-2.930,94.238,62.500
1643749429.705,92.773,-2.441,0.000,97.168,52.734
1643749429.709,98.145,-2.441,-1.465,96.680,14.648
1643749429.713,110.840,0.977,5.371,94.727,16.113
1643749429.717,106.445,3.906,8.301,89.844,-49.316
1643749429.720,101.562,0.488,7.812,100.098,-34.668
1643749429.724,97.656,-0.488,8.301,106.445,44.434
1643749429.728,90.820,2.441,7.812,97.656,29.297
1643749429.732,89.355,3.418,9.277,90.820,7.324
1643749429.736,87.891,2.930,9.277,91.797,-3.418
1643749429.738,85.938,5.371,10.254,98.633,47.363
1643749429.742,86.914,7.812,11.230,90.332,30.762
1643749429.746,84.961,9.277,14.648,79.590,-24.902
1643749429.750,84.961,11.230,13.184,81.543,-28.320
1643749429.754,88.379,13.672,9.277,88.379,-2.930
1643749429.758,83.008,12.695,8.789,90.820,5.859
1643749429.762,83.984,12.207,5.859,79.102,2.930
1643749429.765,80.566,13.672,7.812,68.848,16.602
1643749429.769,70.801,14.160,14.648,72.266,34.668
1643749429.773,70.801,12.695,15.137,75.684,43.945
1643749429.777,76.172,11.719,12.695,66.406,43.457
1643749429.781,74.219,12.207,13.184,57.617,-4.883
1643749429.783,62.988,11.719,12.207,64.453,-11.230
1643749429.787,64.453,11.230,11.230,73.242,21.484
1643749429.791,58.594,14.648,14.160,64.941,28.320
1643749429.795,58.594,18.066,16.602,58.105,52.734
1643749429.799,59.570,19.531,15.137,57.617,48.828
1643749429.803,62.012,20.508,14.648,62.012,39.551
1643749429.807,62.012,21.484,19.043,62.500,10.742
1643749429.810,52.734,25.391,18.066,52.734,-4.883
1643749429.814,49.805,25.391,10.254,50.293,-12.207
1643749429.818,47.363,24.414,13.672,56.641,-24.414
1643749429.822,50.293,24.902,23.438,51.758,34.668
1643749429.826,45.410,21.973,20.996,32.715,26.367
1643749429.843,41.016,20.996,20.508,31.250,-12.695
1643749429.847,44.434,22.461,22.461,47.363,44.922
1643749429.851,37.598,24.902,17.578,52.246,81.055
1643749429.855,35.156,24.902,21.484,41.992,29.785
1643749429.859,40.039,22.949,27.832,38.574,-3.906
1643749429.863,46.387,23.438,27.832,47.363,16.602
1643749429.867,47.852,24.902,28.320,53.223,70.312
1643749429.870,37.109,24.902,25.879,41.016,11.719
1643749429.874,36.621,24.902,16.113,31.250,-51.270
1643749429.878,37.109,25.879,10.742,36.621,20.508
1643749429.882,33.203,24.902,20.996,40.527,8.789
1643749429.886,33.691,23.438,30.273,37.109,4.395
1643749429.888,32.715,24.902,33.691,34.180,71.289
1643749429.892,37.109,27.832,32.715,35.645,27.344
1643749429.896,39.062,29.297,28.320,41.504,-1.465
1643749429.900,44.922,31.250,26.855,41.504,24.902
1643749429.904,44.434,33.203,26.855,31.738,46.875
1643749429.908,47.852,31.250,28.809,28.809,67.383
1643749429.912,55.664,30.273,29.297,37.109,47.852
1643749429.915,57.129,33.203,26.855,44.922,49.316
1643749429.919,50.781,36.133,30.273,43.457,38.086
1643749429.923,37.109,33.691,29.297,36.133,-9.766
1643749429.927,22.949,31.738,24.902,37.598,33.203
1643749429.931,14.160,29.297,25.391,43.457,101.562
1643749429.933,20.508,27.344,25.391,34.668,49.805
1643749429.937,23.438,30.273,26.367,23.926,4.883
1643749429.941,18.066,33.203,23.438,26.367,-20.996
1643749429.945,18.555,35.156,18.066,31.738,-48.828
1643749429.949,21.973,30.762,20.996,25.391,31.250
1643749429.953,31.250,27.344,24.414,16.602,11.719
1643749429.957,33.691,28.809,25.391,21.973,-13.184
1643749429.960,36.621,28.809,26.855,31.738,9.766
1643749429.964,29.785,26.855,25.879,28.809,-9.277
1643749429.968,21.973,25.879,32.715,16.113,4.395
1643749429.972,21.973,23.926,32.227,13.184,59.082
1643749429.976,18.066,20.508,27.832,21.973,27.832
1643749429.978,20.020,21.484,29.297,27.832,50.781
1643749429.982,18.066,24.902,23.926,20.020,73.730
1643749429.986,24.902,23.926,16.113,18.555,17.578
1643749429.990,29.297,20.020,20.508,29.785,21.484
1643749429.994,21.484,21.973,25.879,31.250,69.824
1643749429.998,21.484,27.344,25.391,19.531,88.867
1643749430.002,20.996,28.320,26.855,9.277,41.016
1643749430.005,18.555,25.879,23.438,12.695,33.691
1643749430.009,27.832,26.855,19.531,24.902,40.527
1643749430.013,32.715,27.832,24.902,20.996,15.625
1643749430.017,17.090,28.320,28.320,14.160,6.836
1643749430.021,14.648,28.320,28.320,18.066,-0.977
1643749430.023,22.949,22.461,29.297,22.949,33.203
1643749430.027,17.578,23.438,29.785,23.438,85.938
1643749430.031,19.043,24.902,28.809,20.020,66.406
1643749430.035,20.020,24.902,24.414,12.695,49.805
1643749430.039,12.207,25.879,21.484,17.578,58.594
1643749430.043,9.277,25.879,22.461,24.414,39.062
1643749430.047,20.996,24.902,22.461,24.414,0.000
1643749430.050,35.645,21.484,21.973,21.973,37.598
1643749430.054,35.156,22.949,26.367,22.461,83.008
1643749430.058,24.902,26.855,31.250,28.320,56.641
1643749430.062,25.391,26.367,32.227,25.879,59.570
1643749430.066,34.668,24.414,31.250,20.996,16.113
1643749430.083,32.227,25.879,26.855,24.414,-6.836
1643749430.087,24.414,24.902,23.926,30.762,10.254
1643749430.091,27.344,23.926,25.391,29.297,63.965
1643749430.095,30.762,25.879,23.438,25.391,59.570
1643749430.099,29.785,27.832,21.484,23.438,35.156
1643749430.103,30.762,29.297,19.043,23.926,73.242
1643749430.107,24.414,30.762,9.277,26.367,79.102
1643749430.110,27.832,31.250,19.043,17.090,0.488
1643749430.114,27.344,32.227,32.227,12.207,-38.086
1643749430.118,23.438,30.273,30.762,23.926,42.969
1643749430.122,27.344,26.855,29.297,27.344,60.547
1643749430.126,28.809,26.367,30.762,22.461,40.039
1643749430.114,30.762,27.344,30.273,14.160,32.715
1643749430.118,25.879,25.391,27.832,16.602,18.555
1643749430.122,20.508,23.926,26.855,27.832,38.086
1643749430.126,15.137,24.902,27.832,25.391,43.457
1643749430.130,12.207,23.438,23.438,10.254,27.344
1643749430.134,22.949,23.438,20.508,10.742,30.762
1643749430.138,25.879,24.414,30.762,23.926,46.875
1643749430.141,17.090,23.926,33.203,26.367,13.672
1643749430.145,16.602,24.414,28.809,17.090,-20.020
1643749430.149,18.066,27.344,27.832,14.160,13.184
1643749430.153,22.461,30.762,30.273,23.926,9.277
1643749430.157,24.902,29.785,33.203,28.320,18.555
1643749430.158,31.738,28.320,30.762,21.973,83.496
1643749430.162,37.598,29.785,26.367,12.207,72.754
1643749430.166,39.551,29.785,28.320,24.902,49.805
1643749430.170,27.344,26.855,32.715,35.645,65.430
1643749430.174,12.207,26.855,33.203,22.949,28.809
1643749430.178,13.184,31.738,28.809,12.207,-48.828
1643749430.182,20.996,31.250,26.855,20.020,-55.176
1643749430.185,19.043,30.762,26.855,23.438,29.785
1643749430.189,14.648,32.715,26.367,16.602,49.805
1643749430.193,19.531,30.273,31.250,17.578,12.695
1643749430.197,21.484,27.832,34.180,20.020,-7.324
1643749430.201,19.043,28.809,31.738,27.832,35.156
1643749430.218,23.438,30.762,28.809,37.109,58.105
1643749430.222,27.344,31.250,26.367,24.902,12.695
1643749430.226,23.438,30.762,29.297,20.508,-19.531
1643749430.230,22.949,29.297,32.715,28.320,26.367
1643749430.234,24.902,30.762,31.250,30.762,41.992
1643749430.238,26.855,34.180,25.879,27.344,6.348
1643749430.242,33.203,36.621,23.438,20.020,5.371
1643749430.245,27.832,33.691,26.367,25.391,14.160
1643749430.249,28.320,30.762,28.809,32.715,55.664
1643749430.253,37.109,28.320,32.715,29.297,82.520
1643749430.257,27.832,25.391,32.227,18.066,39.551
1643749430.261,18.066,27.832,25.879,17.090,7.812
1643749430.263,24.414,27.832,23.926,30.762,13.184
1643749430.267,26.367,28.809,28.809,34.180,28.320
1643749430.271,29.785,33.691,28.809,27.344,40.527
1643749430.275,37.109,33.203,18.066,29.785,0.000
1643749430.279,23.438,33.203,18.555,37.109,-4.395
1643749430.283,17.090,32.227,35.645,38.574,72.266
1643749430.287,21.973,27.832,42.969,29.785,48.828
1643749430.290,22.949,26.855,37.109,24.414,8.301
1643749430.294,20.020,25.391,34.180,29.297,14.160
1643749430.298,19.531,25.879,31.738,27.344,28.809
1643749430.302,24.902,27.832,28.809,18.555,28.320
1643749430.306,34.180,25.879,29.785,16.113,41.992
1643749430.308,33.203,25.391,28.809,24.414,18.066
1643749430.312,22.949,27.832,29.785,31.250,-9.277
1643749430.316,18.555,29.785,26.367,24.414,20.020
1643749430.320,20.508,28.320,28.809,19.531,36.133
1643749430.324,20.508,21.973,35.156,17.090,6.348
1643749430.328,23.926,21.973,35.156,31.250,24.414
1643749430.332,29.785,22.949,38.086,36.621,104.004
1643749430.335,26.367,23.926,35.645,18.555,65.430
1643749430.339,30.762,27.832,32.227,15.625,3.418
1643749430.343,38.574,26.367,32.715,28.809,-19.531
1643749430.347,34.668,24.902,27.832,38.574,29.785
1643749430.351,33.203,29.785,29.785,30.273,32.227
1643749430.352,33.203,31.250,33.203,21.484,-35.156
1643749430.356,27.832,27.832,25.391,29.785,2.441
1643749430.360,20.996,27.832,24.414,31.738,80.078
1643749430.364,22.949,28.809,31.250,20.020,72.266
1643749430.368,30.762,30.273,33.691,15.625,10.742
1643749430.372,38.086,31.250,31.738,23.438,11.230
1643749430.376,29.785,30.273,33.691,36.621,79.590
1643749430.379,16.602,29.297,32.715,31.250,72.266
1643749430.383,18.555,31.738,30.273,14.648,-21.484
1643749430.387,16.602,32.715,29.785,13.672,-20.996
1643749430.391,21.973,30.273,30.273,27.832,49.805
1643749430.395,39.062,31.250,28.320,31.738,40.527
1643749430.398,28.320,28.320,29.785,20.508,28.809
1643749430.402,13.672,25.879,36.621,20.020,31.250
1643749430.406,26.367,27.832,37.598,30.762,35.156
1643749430.410,28.809,25.879,36.133,31.738,77.148
1643749430.414,20.508,27.344,34.180,23.438,49.805
1643749430.418,16.113,30.762,27.832,16.602,-31.738
1643749430.422,12.207,30.762,26.367,25.391,-60.059
1643749430.425,17.578,32.715,30.273,33.203,13.672
1643749430.429,26.367,32.715,27.344,22.461,79.590
1643749430.433,23.926,28.809,24.414,16.602,67.871
1643749430.437,20.020,28.809,22.949,20.508,47.363
1643749430.441,16.602,29.297,18.066,25.879,55.664
1643749430.443,21.484,28.320,22.949,21.973,106.445
1643749430.447,28.809,27.832,29.297,9.277,61.523
1643749430.451,20.996,27.832,26.367,12.695,-24.902
1643749430.455,16.602,27.832,25.391,28.809,-3.418
1643749430.459,13.672,28.809,29.785,27.344,3.906
1643749430.463,9.766,27.344,31.738,20.020,28.809
1643749430.467,9.277,27.832,28.809,13.672,35.156
1643749430.470,19.043,27.344,29.785,16.602,-15.137
1643749430.474,26.367,25.391,24.902,27.344,-19.043
1643749430.478,24.902,26.855,21.484,25.879,24.414
1643749430.482,17.578,24.902,33.203,15.137,60.547
1643749430.486,11.719,22.949,30.762,17.090,36.133
1643749430.492,14.648,21.484,25.391,27.832,17.090
1643749430.496,17.578,17.090,33.691,24.902,31.250
1643749430.500,14.648,18.555,34.668,11.719,-10.254
1643749430.504,14.648,23.438,31.738,11.230,-28.809
1643749430.508,22.461,26.367,30.762,22.949,15.137
1643749430.512,28.320,27.344,30.762,25.391,13.184
1643749430.516,28.320,26.855,31.250,20.996,11.719
1643749430.519,18.555,25.391,27.832,18.555,21.484
1643749430.523,17.090,24.414,23.438,23.926,42.480
1643749430.527,22.949,23.926,26.367,25.879,59.082
1643749430.531,23.438,26.855,32.715,19.043,18.555
1643749430.535,23.926,28.320,31.738,11.230,0.977
1643749430.533,26.367,30.273,32.227,18.555,26.367
1643749430.537,26.855,31.250,28.809,29.297,52.246
1643749430.541,27.832,31.738,25.391,29.785,41.992
1643749430.545,33.691,32.227,26.367,21.973,33.203
1643749430.549,40.039,31.738,26.367,22.949,20.508
1643749430.553,41.992,31.738,28.320,31.738,24.414
1643749430.557,34.180,33.203,26.855,25.391,59.082
1643749430.560,29.785,35.645,25.879,14.648,63.965
1643749430.564,25.879,35.645,17.578,17.090,35.156
1643749430.568,19.531,35.156,17.578,22.461,64.453
1643749430.572,20.996,34.180,29.297,24.902,64.941
1643749430.576,25.879,34.668,31.738,23.438,43.945
1643749430.579,26.855,35.645,28.809,18.555,40.039
1643749430.583,26.367,33.691,28.320,27.344,38.086
1643749430.587,27.832,33.203,28.320,31.250,44.434
1643749430.591,30.273,31.250,26.855,21.973,46.875
1643749430.595,28.809,32.227,26.367,17.090,8.301
1643749430.599,20.996,32.227,27.344,23.438,22.949
1643749430.603,19.531,29.785,20.508,28.809,106.934
1643749430.606,21.484,25.879,15.625,25.879,66.406
1643749430.610,18.066,24.902,25.391,17.578,43.945
1643749430.614,21.973,23.926,28.809,14.648,83.496
1643749430.618,28.320,21.973,26.855,20.508,103.027
1643749430.622,22.949,23.926,25.879,14.160,78.613
1643749430.638,19.531,25.391,25.391,3.418,30.273
1643749430.642,24.414,27.832,26.367,12.695,-29.297
1643749430.646,19.531,28.809,26.855,26.367,51.758
1643749430.650,16.113,28.320,29.297,23.438,89.355
1643749430.654,19.531,31.250,28.809,15.137,12.695
1643749430.658,21.973,28.809,30.273,13.184,54.688
1643749430.662,22.949,28.320,28.809,17.578,45.410
1643749430.665,20.508,27.344,26.367,20.996,34.180
1643749430.669,24.414,25.391,32.715,18.066,50.293
1643749430.673,28.809,26.855,34.180,18.555,-1.953
1643749430.677,25.879,28.320,31.738,25.391,-21.973
1643749430.681,27.344,25.879,29.785,34.180,21.484
1643749430.683,25.879,25.879,30.762,26.855,57.617
1643749430.687,20.020,28.809,31.250,20.020,16.113
1643749430.691,21.973,27.344,26.367,26.367,20.996
1643749430.695,28.809,26.855,28.320,30.762,74.219
1643749430.699,21.484,27.344,33.203,25.391,81.055
1643749430.703,16.113,27.344,29.785,19.043,67.383
1643749430.707,20.996,28.809,26.367,20.996,15.625
1643749430.710,25.879,28.809,27.344,33.203,24.414
1643749430.714,33.691,25.391,29.297,39.062,25.879
1643749430.718,31.738,25.879,31.250,24.902,-0.977
1643749430.722,24.414,25.391,29.297,20.020,22.461
1643749430.726,17.578,26.367,23.926,27.832,68.848
1643749430.728,19.531,27.832,28.320,29.297,23.438
1643749430.732,26.855,26.367,36.133,22.949,2.930
1643749430.736,17.578,27.832,32.715,15.625,12.207
1643749430.740,17.578,29.785,26.367,21.484,36.621
1643749430.744,23.926,28.320,24.902,34.668,99.121
1643749430.748,30.762,26.855,29.785,33.691,34.180
1643749430.752,34.668,26.855,33.203,27.344,-42.969
1643749430.755,22.949,24.902,34.668,29.297,-29.297
1643749430.759,20.508,24.902,32.715,37.109,13.184
1643749430.763,19.043,23.926,25.391,27.344,17.578
1643749430.767,20.020,21.973,22.949,13.672,18.066
1643749430.771,17.578,21.484,30.273,15.625,-11.719
1643749430.773,27.344,26.367,28.320,24.414,-44.434
1643749430.777,36.133,29.297,21.484,27.344,33.691
1643749430.781,21.484,26.367,14.648,22.461,10.254
1643749430.785,16.602,26.855,13.672,19.531,-40.039
1643749430.789,22.949,29.297,29.297,24.902,19.043
1643749430.793,20.996,26.855,34.668,29.297,104.492
1643749430.797,14.160,24.414,32.227,20.020,137.207
1643749430.800,20.996,23.926,31.738,15.625,51.758
1643749430.804,33.203,27.832,27.832,19.531,19.531
1643749430.808,29.785,25.879,24.902,22.949,35.645
1643749430.812,20.020,24.902,33.203,20.508,19.043
1643749430.816,28.320,28.320,37.109,12.695,24.902
1643749430.819,37.598,25.879,30.762,17.090,62.988
1643749430.823,39.062,26.367,20.508,23.438,63.477
1643749430.827,41.016,27.832,20.020,20.508,41.016
1643749430.831,34.668,26.855,27.344,13.672,38.086
1643749430.835,24.414,25.879,27.832,13.672,19.043
1643749430.839,16.113,23.926,27.832,26.367,30.273
1643749430.843,7.324,24.414,27.832,34.668,0.977
1643749430.846,9.766,26.855,32.715,21.484,-23.926
1643749430.850,4.395,29.297,30.762,7.812,16.602
1643749430.854,5.371,30.273,25.879,18.555,34.180
1643749430.858,16.113,31.738,28.809,26.367,33.691
1643749430.862,13.672,32.227,28.320,20.996,59.082
1643749430.863,17.090,30.273,24.902,14.648,28.809
1643749430.867,22.949,31.738,20.996,15.625,21.484
1643749430.871,29.297,29.297,24.902,22.949,86.914
1643749430.875,24.414,25.879,28.320,17.578,102.539
1643749430.879,14.160,27.344,25.879,8.301,5.859
1643749430.883,14.160,26.367,26.367,13.184,-26.855
1643749430.887,23.438,22.949,22.949,22.949,54.688
1643749430.890,33.203,22.461,21.484,19.531,21.973
1643749430.894,31.738,21.973,25.879,16.113,9.766
1643749430.898,17.578,24.414,27.344,17.578,27.832
1643749430.902,15.137,28.809,27.832,21.973,-8.301
1643749430.906,28.809,27.344,25.391,29.297,41.992
1643749430.908,29.785,27.832,24.902,22.949,61.523
1643749430.912,20.508,28.320,30.762,12.695,-27.832
1643749430.916,19.043,28.809,32.227,19.043,-20.020
1643749430.920,25.391,32.227,30.762,24.902,3.906
1643749430.924,22.949,31.738,31.738,22.949,-22.461
1643749430.928,27.344,30.762,32.715,19.043,-15.625
1643749430.932,33.691,30.762,31.738,19.531,-1.953
1643749430.935,31.738,31.738,29.785,24.902,21.973
1643749430.939,26.855,31.250,28.320,27.344,22.461
1643749430.943,20.020,28.809,28.809,17.578,-22.949
1643749430.947,21.484,29.297,27.832,11.230,24.414
1643749430.951,33.203,26.855,29.297,21.484,83.984
1643749430.968,31.738,25.391,28.809,27.344,63.477
1643749430.972,23.438,26.367,27.344,21.484,12.695
1643749430.976,22.949,23.926,27.344,20.508,17.090
1643749430.980,14.648,21.973,27.832,28.809,34.180
1643749430.984,12.207,22.461,36.133,33.691,8.301
1643749430.988,16.602,22.461,42.969,22.949,-2.930
1643749430.992,18.066,21.973,41.504,15.137,-16.602
1643749430.995,16.602,21.973,38.574,21.973,-7.324
1643749430.999,21.484,21.484,33.203,30.762,41.016
1643749431.003,20.020,20.508,33.203,32.227,19.043
1643749431.007,16.602,22.461,29.297,19.043,-6.348
1643749431.011,20.508,24.902,21.484,21.484,60.547
1643749431.013,26.367,24.902,26.367,40.039,63.477
1643749431.017,28.809,23.926,33.203,36.133,33.691
1643749431.021,35.645,27.344,28.809,18.555,34.668
1643749431.025,34.180,31.738,23.926,12.207,-10.254
1643749431.029,19.531,33.203,24.414,17.090,13.184
1643749431.033,21.973,31.250,25.391,23.926,50.781
1643749431.037,24.902,29.297,26.367,19.043,39.062
1643749431.040,26.855,32.227,24.414,17.090,-21.484
1643749431.044,30.273,30.273,23.926,28.809,-16.602
1643749431.048,35.156,29.785,26.855,29.297,73.730
1643749431.052,34.668,32.715,21.973,21.484,115.723
1643749431.056,25.879,34.180,20.996,20.020,20.996
1643749431.058,28.809,32.227,29.297,25.391,10.742
1643749431.062,32.715,29.785,34.180,32.227,98.145
1643749431.066,32.715,28.809,34.180,21.484,55.176
1643749431.070,31.250,27.344,31.738,10.742,31.738
1643749431.074,27.832,25.391,31.738,17.578,28.320
1643749431.078,35.156,25.391,29.785,29.297,41.016
1643749431.082,36.621,28.809,28.320,27.832,49.316
1643749431.085,26.855,27.344,28.809,19.043,6.836
1643749431.089,21.484,25.879,31.250,16.602,20.508
1643749431.093,20.020,26.367,29.297,21.484,54.199
1643749431.097,20.020,27.832,22.461,21.973,39.062
1643749431.101,26.855,28.320,25.879,17.090,3.906
1643749431.103,18.066,28.320,28.809,12.695,-42.969
1643749431.107,9.277,31.250,23.438,19.531,-4.395
1643749431.111,14.648,30.273,24.414,30.762,42.480
1643749431.115,19.531,29.785,28.809,21.973,-3.906
1643749431.119,22.949,32.715,30.273,9.766,-55.664
1643749431.123,20.996,33.203,30.273,20.996,13.672
1643749431.127,23.926,30.273,28.320,36.133,75.684
1643749431.130,16.113,28.320,31.738,32.227,48.340
1643749431.134,17.090,29.297,33.691,14.648,19.043
1643749431.138,26.367,29.785,24.414,12.207,13.672
1643749431.142,22.461,28.809,18.555,28.320,27.344
1643749431.146,16.113,29.297,23.438,28.320,96.680
1643749431.148,20.996,29.297,27.832,20.996,76.172
1643749431.152,28.809,26.367,26.367,23.438,41.504
1643749431.156,27.832,28.320,22.949,31.250,71.777
1643749431.160,29.785,30.762,24.902,38.086,106.445
1643749431.164,26.855,29.785,26.367,27.832,105.957
1643749431.168,24.902,29.785,28.320,18.555,44.922
1643749431.172,25.879,29.297,32.227,26.855,14.648
1643749431.175,15.137,25.391,32.715,33.203,18.066
1643749431.179,18.066,27.832,27.344,27.832,40.039
1643749431.183,22.461,31.250,23.438,17.090,-19.043
1643749431.187,23.926,28.320,30.273,20.020,-11.230
1643749431.191,27.832,29.297,31.250,33.691,54.199
1643749431.193,22.461,32.715,28.809,31.738,23.926
1643749431.197,13.184,31.738,29.297,18.555,6.836
1643749431.201,15.137,29.297,23.926,17.578,45.898
1643749431.205,19.043,30.273,23.438,23.926,33.203
1643749431.209,12.695,28.809,25.391,23.438,14.648
1643749431.213,12.207,27.832,26.855,19.531,3.418
1643749431.217,16.113,29.785,31.738,21.484,-46.387
1643749431.220,18.555,30.273,33.203,28.809,-15.137
1643749431.224,23.438,28.320,26.367,31.738,17.090
1643749431.228,25.879,30.762,22.949,26.367,-9.277
1643749431.232,24.414,34.668,28.809,25.391,8.301
1643749431.236,25.391,30.762,35.645,33.203,28.809
1643749431.238,21.484,30.273,33.691,36.133,65.430
1643749431.242,18.066,32.715,33.203,30.762,52.734
1643749431.246,27.832,31.738,31.738,21.973,-41.504
1643749431.250,33.691,32.227,26.855,23.438,-11.719
1643749431.254,24.414,29.785,29.297,33.203,43.945
1643749431.258,25.879,29.785,29.297,30.762,69.824
1643749431.262,30.762,30.762,27.344,21.484,66.406
1643749431.265,29.297,30.273,26.855,22.949,78.613
1643749431.269,30.273,30.273,25.391,30.762,88.379
1643749431.273,29.785,28.809,28.809,27.344,72.754
1643749431.277,31.250,28.809,34.180,19.043,63.477
1643749431.281,37.109,31.738,31.738,15.625,33.691
1643749431.284,35.156,31.738,25.879,22.461,60.547
1643749431.288,27.832,28.320,26.855,34.180,75.195
1643749431.292,29.297,29.785,29.297,32.715,51.758
1643749431.296,29.297,31.250,23.438,19.531,59.570
1643749431.300,29.785,33.203,21.484,24.414,47.852
1643749431.304,27.832,32.227,29.297,32.715,68.848
1643749431.308,27.832,28.809,32.715,28.320,23.438
1643749431.311,33.691,31.738,26.367,23.926,-27.832
1643749431.315,26.367,32.227,26.855,27.832,7.812
1643749431.319,22.949,30.273,36.133,38.086,33.691
1643749431.323,22.949,29.785,39.062,38.086,10.254
1643749431.327,21.484,25.879,35.156,26.855,-25.391
1643749431.343,20.996,25.879,32.227,28.320,21.484
1643749431.347,24.902,29.297,33.203,39.062,51.758
1643749431.351,27.832,29.785,32.227,32.227,20.508
1643749431.355,20.996,30.273,25.391,15.137,-6.836
1643749431.359,25.879,29.297,24.902,11.230,14.160
1643749431.363,32.227,29.785,30.273,26.367,23.926
1643749431.367,28.320,33.691,27.832,30.273,30.762
1643749431.370,22.949,30.273,28.809,14.648,39.551
1643749431.374,19.043,26.367,30.273,5.371,2.930
1643749431.378,23.438,22.461,34.180,15.625,16.113
1643749431.382,23.926,22.949,40.039,30.273,75.684
1643749431.386,29.297,27.344,33.691,26.855,51.758
1643749431.388,34.180,26.367,33.691,20.508,30.762
1643749431.392,36.621,33.691,32.227,28.320,12.695
1643749431.396,36.133,33.691,24.414,36.133,32.227
1643749431.400,26.367,23.926,27.832,37.109,42.969
1643749431.404,23.438,22.461,29.297,28.320,52.734
1643749431.408,20.020,24.902,29.785,18.555,47.852
1643749431.412,13.672,26.855,34.180,19.043,7.324
1643749431.415,19.043,28.809,37.109,23.926,7.812
1643749431.419,22.949,33.203,33.691,15.625,65.430
1643749431.423,18.066,29.785,31.250,8.301,78.613
1643749431.427,20.020,27.832,30.273,15.137,32.227
1643749431.431,25.879,30.273,24.414,27.344,62.500
1643749431.433,21.484,30.762,25.391,28.809,39.551
1643749431.437,19.531,30.273,31.738,17.578,-48.340
1643749431.441,23.926,29.785,34.180,23.438,-11.719
1643749431.445,23.438,31.250,29.785,33.203,28.320
1643749431.449,19.043,30.273,26.855,25.391,-14.160
1643749431.453,18.066,28.320,28.809,13.672,-15.137
1643749431.457,10.742,26.367,29.297,16.113,23.438
1643749431.460,7.324,25.391,30.273,24.902,31.250
1643749431.464,22.461,32.227,29.297,29.785,79.590
1643749431.468,27.832,33.691,30.273,21.484,41.992
1643749431.472,11.230,27.344,36.133,11.230,-36.133
1643749431.476,19.043,30.273,41.504,30.273,19.043
1643749431.478,26.367,26.367,45.898,29.297,43.457
1643749431.482,20.020,31.250,37.109,7.812,12.695
1643749431.486,9.277,40.527,37.598,-7.812,7.812
1643749431.490,-15.137,25.879,49.805,-16.113,48.340
1643749431.494,-28.320,26.855,49.316,-20.996,52.734
1643749431.498,-34.668,39.062,57.129,-35.156,46.875
1643749431.502,-41.504,44.434,71.777,-45.898,-6.836
1643749431.505,-62.500,43.457,68.359,-66.406,-49.316
1643749431.509,-83.984,53.223,70.801,-77.637,15.137
1643749431.513,-99.121,59.570,83.008,-91.797,22.949
1643749431.517,-106.445,71.289,83.008,-111.328,6.836
1643749431.521,-116.699,79.102,83.984,-115.723,18.066
1643749431.523,-126.465,76.172,79.102,-114.746,48.340
1643749431.527,-120.605,84.961,72.266,-120.117,58.105
1643749431.531,-116.699,80.078,73.242,-133.301,39.551
1643749431.535,-120.117,72.266,76.660,-132.812,22.461
1643749431.539,-109.863,80.566,75.684,-109.863,45.410
1643749431.543,-110.840,79.590,65.918,-110.840,28.320
1643749431.547,-108.887,82.031,67.383,-115.234,39.062
1643749431.550,-105.469,77.637,69.336,-112.793,75.195
1643749431.554,-104.492,75.684,68.359,-104.004,67.871
1643749431.558,-100.098,76.660,64.453,-90.820,34.180
1643749431.562,-91.309,78.613,59.082,-82.031,39.551
1643749431.566,-86.914,79.590,58.594,-77.637,53.711
1643749431.569,-78.613,73.730,62.988,-69.336,16.602
1643749431.573,-68.848,66.895,59.082,-58.105,33.691
1643749431.577,-72.266,63.477,50.781,-65.918,49.316
1643749431.581,-56.152,70.312,53.223,-63.965,56.152
1643749431.585,-47.363,63.477,55.664,-53.711,48.340
1643749431.589,-49.805,53.711,47.363,-53.223,32.227
1643749431.593,-45.898,55.664,43.457,-48.340,21.484
1643749431.596,-46.387,46.387,50.293,-53.223,25.391
1643749431.600,-34.180,44.922,52.734,-48.828,62.988
1643749431.604,-16.602,50.293,44.434,-25.879,53.711
1643749431.608,-11.230,53.711,42.969,-11.719,23.438
1643749431.612,0.977,52.734,46.387,-6.348,1.465
1643749431.613,-0.977,44.434,47.852,-6.348,6.836
1643749431.617,-8.301,42.969,50.781,3.418,14.648
1643749431.621,3.906,42.969,48.828,20.020,24.414
1643749431.625,11.230,35.645,47.363,36.133,42.969
1643749431.629,30.273,32.227,44.434,43.945,46.387
1643749431.633,42.480,27.344,39.551,49.316,22.949
1643749431.637,47.852,22.461,33.203,69.336,49.316
1643749431.640,64.453,20.020,29.297,77.148,51.270
1643749431.644,83.984,12.695,23.926,70.312,42.480
1643749431.648,87.402,8.789,20.508,75.195,2.930
1643749431.652,80.566,7.324,19.043,89.355,7.812
1643749431.656,87.402,3.906,13.184,99.609,49.805
1643749431.658,97.168,1.953,9.766,100.586,62.012
1643749431.662,95.703,2.930,6.836,98.145,62.012
1643749431.666,91.309,-0.488,9.766,101.074,23.438
1643749431.670,96.680,-5.859,10.254,112.793,33.203
1643749431.674,104.980,-5.371,10.254,115.723,45.410
1643749431.678,109.863,-2.930,9.277,105.957,20.020
1643749431.682,104.492,-3.418,8.789,100.098,13.672
1643749431.685,100.098,-5.859,7.812,107.910,62.012
1643749431.689,95.703,-4.395,1.953,106.445,57.129
1643749431.693,96.680,-0.977,1.465,92.285,8.301
1643749431.697,98.633,0.977,0.977,89.355,43.457
1643749431.701,93.750,-0.488,-0.488,94.727,40.527
1643749431.718,93.750,1.953,-0.977,95.215,13.184
1643749431.722,98.633,5.859,-4.395,90.332,31.738
1643749431.726,105.957,1.953,-7.812,91.797,55.664
1643749431.730,107.422,0.488,-6.836,99.609,-9.277
1643749431.734,106.934,2.930,-8.789,99.121,-10.742
1643749431.738,106.445,2.441,-11.230,95.215,51.270
1643749431.742,104.004,1.953,-5.371,86.914,60.059
1643749431.745,115.234,2.441,-1.465,90.820,76.172
1643749431.749,107.910,0.000,0.000,104.004,57.617
1643749431.753,83.984,0.488,0.488,97.168,12.207
1643749431.757,83.984,0.977,0.488,89.844,-36.133
1643749431.761,83.984,4.395,2.441,93.750,10.742
1643749431.763,81.543,4.883,1.465,108.398,103.516
1643749431.767,75.195,-0.977,2.930,115.723,83.496
1643749431.771,79.102,2.930,1.953,101.562,12.695
1643749431.775,93.262,11.230,0.977,84.961,-49.316
1643749431.779,92.773,12.207,2.930,89.355,-11.230
1643749431.783,85.449,12.695,1.465,94.727,5.371
1643749431.787,96.191,14.160,-1.953,89.355,-13.672
1643749431.790,89.844,13.184,1.465,83.008,15.137
1643749431.794,78.125,13.184,5.371,83.496,58.105
1643749431.798,82.520,13.672,2.930,83.496,75.684
1643749431.802,72.754,14.648,2.930,71.289,5.859
1643749431.806,59.082,13.672,10.742,64.453,-10.742
1643749431.809,60.547,14.648,15.137,68.359,57.617
1643749431.813,61.523,15.137,12.207,72.266,69.824
1643749431.817,62.500,11.230,15.137,66.406,41.016
1643749431.821,61.035,13.672,16.602,56.641,-28.809
1643749431.825,62.500,20.996,18.066,56.152,-17.090
1643749431.829,51.270,15.625,10.742,60.059,33.203
1643749431.833,40.527,13.672,7.812,53.223,20.020
1643749431.836,46.387,19.043,18.555,41.016,-2.930
1643749431.840,55.664,20.996,21.484,41.992,-21.973
1643749431.844,57.129,22.461,19.531,47.363,-12.695
1643749431.848,53.711,22.949,20.020,54.199,57.617
1643749431.852,55.664,21.973,26.855,47.852,54.199
1643749431.853,53.711,22.461,32.227,41.992,32.227
1643749431.857,47.852,22.461,29.297,50.781,37.109
1643749431.861,48.828,21.973,26.367,54.199,29.785
1643749431.865,57.129,24.414,26.367,49.316,29.785
1643749431.869,55.176,26.855,23.926,37.598,40.039
1643749431.873,45.410,26.367,21.484,37.598,6.348
1643749431.877,33.203,30.273,22.949,45.410,25.879
1643749431.880,33.203,34.180,24.414,43.457,69.336
1643749431.884,45.410,32.227,27.832,36.133,37.598
1643749431.888,45.410,29.297,22.949,29.785,21.484
1643749431.892,53.223,32.227,19.043,43.457,32.715
1643749431.896,55.176,35.156,29.297,52.246,23.438
1643749431.898,39.551,33.691,29.297,39.062,-9.766
1643749431.902,35.645,38.574,19.531,37.109,-10.254
1643749431.906,38.574,33.691,19.043,45.410,-4.395
1643749431.910,44.434,29.297,24.902,43.457,34.180
1643749431.914,50.781,29.297,33.203,35.645,78.613
1643749431.918,53.223,26.367,33.691,30.273,63.965
1643749431.922,44.922,27.832,27.344,32.715,78.613
1643749431.925,39.551,30.762,24.414,38.574,79.590
1643749431.929,43.457,33.203,23.438,33.203,33.691
1643749431.933,43.945,33.691,21.484,27.832,14.160
1643749431.937,47.852,32.715,25.391,37.598,8.789
1643749431.941,33.203,32.227,31.250,41.504,42.969
1643749431.943,23.926,29.297,27.832,32.715,5.859
1643749431.947,36.133,25.391,26.855,25.391,-14.648
1643749431.951,32.227,25.879,32.715,24.414,-3.418
1643749431.955,29.297,25.879,35.156,34.180,-1.465
1643749431.959,35.645,25.391,35.645,38.574,43.457
1643749431.963,33.203,27.832,35.645,22.949,27.344
1643749431.967,37.109,30.273,30.273,18.555,6.836
1643749431.970,40.039,28.320,26.855,25.391,-16.602
1643749431.974,24.414,27.832,29.297,31.250,7.324
1643749431.978,19.043,28.320,27.832,26.367,44.922
1643749431.982,30.762,28.809,29.785,24.902,5.859
1643749431.986,31.250,30.273,33.203,34.180,23.438
1643749432.003,29.297,27.344,27.832,34.668,10.254
1643749432.007,37.109,25.879,28.809,30.762,-30.762
1643749432.011,37.109,27.344,37.598,27.344,16.602
1643749432.015,26.367,28.809,36.133,28.320,56.152
1643749432.019,32.227,31.250,30.762,35.156,47.852
1643749432.023,37.598,33.691,30.273,33.691,75.195
1643749432.027,22.949,34.180,32.715,24.902,87.891
1643749432.030,28.320,34.668,30.762,23.926,41.992
1643749432.034,34.668,36.133,22.461,31.738,10.742
1643749432.038,25.391,34.668,25.879,33.203,12.695
1643749432.042,25.391,30.273,30.762,27.832,-2.441
1643749432.046,17.578,30.273,29.297,20.020,28.320
1643749432.034,8.301,33.203,31.250,26.367,43.457
1643749432.038,20.020,34.180,31.250,31.738,38.574
1643749432.042,24.902,33.691,30.762,19.531,52.734
1643749432.046,16.602,30.762,29.785,15.625,8.301
1643749432.050,16.602,28.809,20.996,20.996,11.230
1643749432.054,18.555,28.809,23.438,25.391,47.363
1643749432.058,19.531,30.762,32.227,15.625,80.078
1643749432.061,20.996,30.273,33.203,5.371,46.387
1643749432.065,19.043,30.762,29.297,12.695,-4.883
1643749432.069,16.113,33.691,21.484,28.320,22.949
1643749432.073,16.113,33.691,24.902,30.273,40.039
1643749432.077,22.949,30.762,28.809,20.508,31.738
1643749432.093,20.508,28.320,29.785,9.766,30.273
1643749432.097,18.555,26.367,32.715,15.625,46.387
1643749432.101,18.555,26.855,31.738,22.949,57.129
1643749432.105,9.277,27.344,26.855,10.254,65.430
1643749432.109,12.207,25.879,23.438,10.254,14.648
1643749432.113,20.020,28.320,26.855,26.855,16.113
1643749432.117,20.996,30.273,33.691,32.227,21.973
1643749432.120,24.414,30.762,32.715,23.926,2.930
1643749432.124,30.273,27.832,27.344,17.578,20.996
1643749432.128,30.762,25.879,25.879,20.996,29.297
1643749432.132,34.668,27.832,25.391,32.715,10.742
1643749432.136,31.738,27.344,21.484,34.668,38.086
1643749432.138,24.414,24.902,21.484,27.832,47.852
1643749432.142,24.414,27.344,23.926,26.855,-22.461
1643749432.146,20.996,28.809,32.715,34.180,-6.836
1643749432.150,20.996,25.391,39.551,36.621,34.668
1643749432.154,35.156,25.879,32.715,30.762,10.254
1643749432.158,38.574,22.949,32.227,28.809,10.742
1643749432.162,32.715,20.508,34.668,34.180,72.754
1643749432.165,30.273,23.438,31.738,33.691,56.152
1643749432.169,23.438,24.902,23.926,25.391,-11.719
1643749432.173,20.020,27.832,20.508,17.090,34.668
1643749432.177,13.672,30.273,26.855,20.996,58.105
1643749432.181,9.277,26.855,31.250,30.273,55.664
1643749432.183,16.113,25.391,33.203,27.832,64.941
1643749432.187,24.902,23.438,40.039,19.043,-25.879
1643749432.191,30.762,17.578,35.645,17.090,-43.457
1643749432.195,25.391,18.555,23.438,24.414,-22.949
1643749432.199,23.438,30.273,26.367,27.344,8.789
1643749432.203,25.391,32.715,28.320,23.926,26.855
1643749432.207,19.043,26.855,23.438,21.484,35.645
1643749432.210,16.602,16.602,32.227,26.367,38.574
1643749432.214,19.043,18.066,25.879,32.715,63.965
1643749432.218,20.020,31.250,19.531,22.461,83.984
1643749432.222,7.812,31.250,28.809,4.395,8.789
1643749432.226,10.742,19.531,31.738,10.742,-9.766
1643749432.228,17.090,19.043,30.762,22.461,23.438
1643749432.232,15.625,33.691,34.180,18.555,29.297
1643749432.236,18.555,31.250,33.203,12.695,20.996
1643749432.240,20.020,28.320,29.785,18.555,30.273
1643749432.244,21.973,27.344,37.109,32.227,65.430
1643749432.248,17.578,19.043,33.203,26.367,25.391
1643749432.252,12.695,31.250,17.090,12.695,-7.324
1643749432.255,11.719,32.227,19.531,17.090,56.641
1643749432.259,16.602,15.625,40.039,21.484,84.961
1643749432.263,23.438,24.414,36.621,18.555,62.988
1643749432.267,20.996,36.621,20.508,10.742,-14.160
1643749432.271,24.414,32.715,25.879,18.066,-32.715
1643749432.274,24.902,31.250,29.785,31.738,41.992
1643749432.278,24.414,36.621,30.273,35.645,45.898
1643749432.282,17.578,36.621,32.715,32.715,19.043
1643749432.286,19.531,36.133,31.250,29.297,66.406
1643749432.290,29.297,37.598,27.832,34.668,39.062
1643749432.294,26.855,35.645,26.855,36.133,59.082
1643749432.298,28.320,33.691,32.715,33.691,59.082
1643749432.301,23.926,35.156,26.855,25.879,6.348
1643749432.305,18.066,34.668,21.973,20.508,19.531
1643749432.309,20.020,29.785,28.320,24.902,18.555
1643749432.313,24.414,32.227,29.785,23.438,25.391
1643749432.317,23.438,30.273,28.809,17.090,34.180
1643749432.318,25.391,28.809,24.414,20.508,30.273
1643749432.322,23.438,31.250,24.414,31.250,17.090
1643749432.326,17.578,31.738,34.668,30.273,43.945
1643749432.330,19.531,32.227,38.574,17.578,38.574
1643749432.334,26.855,31.250,31.250,14.648,-0.488
1643749432.338,29.297,28.320,30.762,23.926,38.574
1643749432.342,20.508,26.367,29.297,24.902,120.605
1643749432.345,20.996,31.250,26.367,16.602,123.535
1643749432.349,24.414,35.156,27.344,10.742,51.270
1643749432.353,20.508,32.715,22.949,17.090,26.855
1643749432.357,17.578,30.273,25.391,26.855,44.922
1643749432.361,12.695,28.320,32.227,19.531,-6.836
1643749432.363,16.113,26.367,28.320,13.672,-58.105
1643749432.367,26.367,31.738,23.438,21.973,22.461
1643749432.371,18.066,28.809,25.879,23.926,94.238
1643749432.375,17.090,27.344,30.273,18.555,35.156
1643749432.379,20.996,33.691,34.180,18.555,-5.859
1643749432.383,16.602,26.855,31.738,20.996,24.902
1643749432.387,23.926,21.484,26.367,27.344,24.414
1643749432.390,25.879,32.227,20.996,31.738,37.598
1643749432.394,33.203,40.527,24.902,25.391,8.789
1643749432.398,26.855,35.156,35.645,11.719,3.906
1643749432.402,13.672,31.738,30.273,15.137,40.039
1643749432.406,20.020,32.715,26.855,26.367,21.484
1643749432.408,22.949,31.738,31.250,19.043,-33.691
1643749432.412,28.809,28.320,26.367,12.695,0.000
1643749432.416,30.273,28.809,28.809,21.973,37.598
1643749432.420,18.066,26.367,29.785,27.832,48.340
1643749432.424,23.438,27.344,31.250,25.391,1.465
1643749432.428,29.297,34.668,33.691,21.973,-17.090
1643749432.432,24.902,31.250,28.320,15.625,-10.254
1643749432.435,30.762,27.344,22.949,21.484,25.391
1643749432.439,34.180,30.762,24.902,27.344,44.922
1643749432.443,29.297,31.738,31.738,18.066,-6.836
1643749432.447,27.832,27.344,33.691,17.090,12.207
1643749432.451,23.438,21.973,38.574,25.879,28.809
1643749432.453,17.578,22.949,36.133,31.250,51.270
1643749432.457,25.879,28.809,31.250,25.879,87.402
1643749432.461,31.738,31.738,28.809,25.391,26.855
1643749432.465,32.715,29.297,25.391,34.180,16.602
1643749432.469,38.086,29.297,28.320,40.039,56.152
1643749432.473,40.039,33.203,26.855,34.180,71.777
1643749432.477,42.480,35.645,25.879,27.832,53.223
1643749432.480,32.227,36.133,33.203,27.832,34.668
1643749432.484,19.531,26.367,38.086,28.320,14.648
1643749432.488,26.367,23.926,40.527,26.855,11.719
1643749432.492,27.344,24.902,36.133,14.648,-2.930
1643749432.496,25.879,25.879,32.227,13.184,37.598
1643749432.513,32.715,31.738,26.855,28.809,83.008
1643749432.517,32.227,32.715,21.973,29.785,48.828
1643749432.521,31.738,33.691,25.879,17.578,48.340
1643749432.525,30.762,31.250,30.273,19.043,18.555
1643749432.529,24.902,27.344,34.180,29.785,51.270
1643749432.533,28.809,30.762,37.598,30.762,78.125
1643749432.537,33.691,32.227,29.297,20.508,1.465
1643749432.540,26.855,27.832,22.949,15.137,-22.461
1643749432.544,20.508,32.715,33.203,27.832,12.207
1643749432.548,17.578,35.156,35.156,38.086,23.438
1643749432.552,19.043,26.367,22.461,29.785,29.785
1643749432.556,20.020,24.414,25.879,21.973,55.176
1643749432.558,17.090,27.832,33.691,24.902,30.273
1643749432.562,15.137,30.273,31.738,37.598,26.367
1643749432.566,17.578,32.227,28.809,37.598,38.574
1643749432.570,24.414,34.668,30.273,23.438,9.766
1643749432.574,23.438,33.203,34.180,19.043,-27.832
1643749432.578,18.066,31.250,28.809,23.438,23.438
1643749432.582,11.719,29.785,24.414,22.949,72.266
1643749432.585,12.695,29.785,30.273,20.508,42.969
1643749432.589,21.484,30.273,27.832,24.414,45.410
1643749432.593,24.414,29.297,23.926,23.926,52.734
1643749432.597,18.555,28.320,25.879,19.043,49.805
1643749432.601,12.207,26.367,26.855,13.184,13.672
1643749432.603,19.531,29.785,26.855,12.695,23.438
1643749432.607,24.414,33.203,29.297,23.438,25.879
1643749432.611,26.367,35.156,29.297,29.785,45.898
1643749432.615,21.484,34.668,24.902,21.484,42.480
1643749432.619,20.020,36.133,20.996,11.230,7.324
1643749432.623,25.391,35.156,20.020,9.766,-2.441
1643749432.627,26.855,30.762,27.344,20.020,66.406
1643749432.630,30.762,31.738,35.645,22.461,66.406
1643749432.634,34.180,35.156,37.598,12.207,37.109
1643749432.638,28.320,36.133,33.203,13.184,58.105
1643749432.642,19.043,33.203,26.855,28.320,29.785
1643749432.646,17.090,34.668,32.227,41.016,31.738
1643749432.648,15.625,36.133,37.109,39.062,31.738
1643749432.652,10.742,29.785,32.227,34.668,16.113
1643749432.656,12.207,29.297,21.973,38.574,1.953
1643749432.660,18.066,31.250,24.902,37.109,21.484
1643749432.664,23.438,28.809,37.109,23.926,83.496
1643749432.668,20.508,27.344,32.715,12.207,86.426
1643749432.672,16.113,29.785,29.297,14.648,15.137
1643749432.675,20.996,32.715,30.762,20.020,-40.527
1643749432.679,26.367,32.227,30.273,14.160,24.414
1643749432.683,16.113,30.273,28.809,5.371,20.508
1643749432.687,12.207,31.250,27.832,11.230,-9.277
1643749432.691,27.344,31.738,26.855,25.879,-15.625
1643749432.695,22.949,28.320,23.438,22.461,0.488
1643749432.699,19.531,30.273,18.555,8.301,42.480
1643749432.703,25.391,32.715,20.508,10.742,0.488
1643749432.707,18.066,31.738,28.320,20.996,-0.488
1643749432.711,14.160,31.250,29.785,23.926,17.090
1643749432.715,22.461,31.738,32.227,20.020,2.441
1643749432.719,34.180,30.273,32.227,17.090,23.438
1643749432.722,35.156,31.738,31.738,23.438,25.879
1643749432.726,24.414,33.203,33.691,31.250,38.574
1643749432.730,15.625,29.785,27.832,28.809,30.273
1643749432.734,22.949,30.273,20.020,24.902,-7.812
1643749432.738,25.391,31.738,22.949,27.832,36.133
1643749432.739,14.648,30.762,27.344,28.320,44.434
1643749432.743,20.508,31.738,23.438,24.902,22.461
1643749432.747,28.320,32.227,21.973,19.043,27.832
1643749432.751,20.996,35.156,20.508,19.043,40.039
1643749432.755,20.996,32.715,24.414,23.926,46.387
1643749432.759,29.297,29.297,30.273,25.879,40.527
1643749432.763,27.344,30.273,28.809,24.414,12.695
1643749432.766,29.785,30.762,29.297,22.461,-19.043
1643749432.770,40.039,31.738,29.785,27.344,16.602
1643749432.774,35.156,34.180,29.297,34.180,46.875
1643749432.778,26.367,34.668,23.926,28.320,2.930
1643749432.782,30.762,34.180,25.391,20.996,-38.574
1643749432.783,20.020,28.320,33.203,23.438,-8.301
1643749432.787,7.324,21.973,35.156,28.809,11.719
1643749432.791,20.020,25.391,35.645,24.902,17.090
1643749432.795,27.344,27.344,32.227,17.578,25.391
1643749432.799,22.461,26.367,32.715,20.508,24.902
1643749432.803,26.367,29.785,36.621,30.273,4.395
1643749432.807,31.250,28.809,36.621,29.785,18.066
1643749432.810,24.414,27.344,32.715,20.020,19.043
1643749432.814,14.648,27.832,26.367,20.020,21.973
1643749432.818,14.160,26.367,23.438,25.391,85.938
1643749432.822,22.461,29.297,30.762,23.926,43.457
1643749432.826,24.414,32.227,30.762,20.020,-17.090
1643749432.828,25.391,31.250,18.555,15.625,40.039
1643749432.832,30.273,30.762,18.555,15.625,71.289
1643749432.836,21.973,32.715,27.344,18.555,40.527
1643749432.840,26.367,37.109,24.414,11.230,21.484
1643749432.844,31.738,37.109,20.996,9.277,32.227
1643749432.848,26.855,37.109,25.879,20.020,41.504
1643749432.852,28.320,38.574,27.344,24.414,52.734
1643749432.855,33.691,34.180,25.879,16.113,68.848
1643749432.859,28.809,32.715,24.414,10.254,41.992
1643749432.863,36.133,34.180,24.902,25.391,-21.973
1643749432.867,44.922,33.691,31.250,37.598,15.625
1643749432.871,33.203,32.227,32.227,29.785,68.848
1643749432.888,28.320,28.809,26.367,25.391,24.902
1643749432.892,28.320,30.273,23.926,31.738,-42.969
1643749432.896,20.508,30.273,27.344,41.992,-38.086
1643749432.900,23.438,23.926,28.809,36.621,54.199
1643749432.904,28.320,24.414,29.297,19.531,47.852
1643749432.908,25.391,29.297,31.250,19.531,41.504
1643749432.912,32.227,32.227,28.809,26.855,70.312
1643749432.915,34.668,30.762,26.855,32.715,66.895
1643749432.919,24.902,27.344,25.879,29.785,78.613
1643749432.923,20.996,26.367,30.273,17.090,59.570
1643749432.927,16.602,26.367,32.715,19.531,43.457
1643749432.931,7.324,27.344,24.414,30.762,93.262
1643749432.933,11.719,27.344,21.973,23.926,44.434
1643749432.937,26.367,27.344,25.391,15.137,9.277
1643749432.941,24.414,29.297,26.367,20.508,25.391
1643749432.945,12.207,25.879,23.926,29.297,33.203
1643749432.949,7.812,26.367,21.484,22.949,46.875
1643749432.953,7.812,25.879,22.949,6.836,45.898
1643749432.957,6.348,22.461,27.344,10.742,77.637
1643749432.960,9.766,25.391,25.391,23.438,50.293
1643749432.964,16.113,27.344,22.461,24.414,35.645
1643749432.968,24.414,26.855,21.484,17.578,47.852
1643749432.972,32.227,25.879,22.461,11.230,5.371
1643749432.976,32.715,24.902,27.344,19.531,38.574
1643749432.978,28.809,27.832,31.250,32.227,98.633
1643749432.982,25.391,29.297,29.785,33.203,62.500
1643749432.986,20.996,28.809,29.297,25.391,1.953
1643749432.990,25.391,27.832,24.414,28.320,15.137
1643749432.994,23.926,25.879,24.414,39.062,47.852
1643749432.998,19.531,27.832,29.785,37.598,12.695
1643749433.002,26.855,28.809,29.785,22.949,23.926
1643749433.005,28.809,30.762,28.320,21.484,14.648
1643749433.009,27.832,33.691,32.227,32.227,17.578
1643749433.013,21.973,29.785,35.156,27.344,36.133
1643749433.017,17.090,25.391,30.273,20.508,18.555
1643749433.021,15.137,25.879,27.344,20.508,12.207
1643749433.023,14.160,25.879,35.645,31.738,24.902
1643749433.027,17.090,23.438,39.551,37.109,59.570
1643749433.031,16.602,23.438,36.133,24.414,65.918
1643749433.035,14.648,26.855,32.715,18.066,71.777
1643749433.039,21.484,25.391,29.785,23.438,53.711
1643749433.043,22.461,27.832,28.320,26.367,45.410
1643749433.047,19.043,29.785,27.832,16.602,51.270
1643749433.050,20.508,27.832,29.785,15.137,77.637
1643749433.054,17.578,26.855,30.273,22.949,46.387
1643749433.058,17.090,26.367,29.297,25.391,23.926
1643749433.062,20.996,27.832,27.832,24.902,73.730
1643749433.066,20.508,30.273,27.344,16.602,-0.977
1643749433.068,19.531,28.320,26.855,16.602,-2.930
1643749433.072,16.602,25.391,27.344,26.367,44.434
1643749433.076,18.066,25.391,30.273,28.320,42.480
1643749433.080,25.879,26.855,27.344,24.902,23.926
1643749433.084,27.344,26.367,25.879,26.855,14.648
1643749433.088,26.367,25.879,27.832,31.738,6.348
1643749433.092,25.879,25.879,28.809,29.785,18.555
1643749433.095,28.809,24.414,34.180,23.438,62.988
1643749433.099,37.109,26.367,37.109,24.414,21.973
1643749433.103,29.297,26.855,29.785,29.785,30.762
1643749433.107,24.902,27.344,26.855,34.180,36.621
1643749433.111,35.156,28.809,29.297,33.203,3.906
1643749433.113,33.203,27.344,22.949,24.902,4.883
1643749433.117,28.320,25.391,22.461,26.855,9.277
1643749433.121,32.227,26.855,28.809,36.621,14.648
1643749433.125,29.297,25.391,25.391,32.715,22.461
1643749433.129,37.109,26.367,28.320,28.809,-14.160
1643749433.133,38.574,28.320,25.391,29.297,-11.230
1643749433.137,26.367,27.832,23.438,27.832,17.090
1643749433.140,26.855,27.832,33.203,24.414,41.016
1643749433.144,28.320,28.809,32.715,21.484,65.430
1643749433.148,26.367,32.227,34.180,23.926,18.555
1643749433.152,24.902,32.227,37.109,29.297,-0.977
1643749433.156,25.391,33.203,29.297,31.250,32.715
1643749433.158,20.996,30.762,24.414,23.438,13.672
1643749433.162,21.973,27.344,30.273,15.625,-13.184
1643749433.166,21.484,28.320,31.250,16.113,18.066
1643749433.170,17.090,25.879,27.832,22.949,44.434
1643749433.174,14.648,25.391,25.879,17.578,59.570
1643749433.178,20.996,28.320,27.344,12.695,44.434
1643749433.182,24.414,30.273,31.250,22.949,-3.906
1643749433.185,24.414,33.203,24.414,29.785,35.156
1643749433.189,25.391,29.297,19.043,26.855,42.480
1643749433.193,25.879,29.297,31.250,17.090,5.859
1643749433.197,21.973,35.645,38.086,18.066,35.156
1643749433.201,17.578,36.133,31.738,29.785,21.484
1643749433.204,20.996,35.645,24.414,31.250,-5.859
1643749433.208,21.484,35.156,28.809,20.020,-0.488
1643749433.212,25.391,32.227,35.645,13.672,-11.230
1643749433.216,25.879,32.227,34.180,20.996,31.738
1643749433.220,20.508,34.180,30.762,26.855,102.539
1643749433.224,27.344,36.133,33.691,23.926,34.180
1643749433.228,32.227,35.156,32.715,16.113,-8.789
1643749433.231,27.832,34.668,26.855,18.066,27.832
1643749433.235,27.344,34.668,26.855,29.297,70.801
1643749433.239,20.020,34.180,29.785,27.832,89.355
1643749433.243,17.578,34.180,30.273,20.996,4.395
1643749433.247,18.555,33.691,30.762,24.414,-9.766
1643749433.263,22.949,32.715,33.691,38.574,24.902
1643749433.267,33.203,30.273,34.668,37.109,18.555
1643749433.271,39.551,30.273,33.691,21.484,30.273
1643749433.275,41.992,33.691,32.227,20.020,0.000
1643749433.279,37.598,30.762,27.832,30.273,52.246
1643749433.283,26.855,28.809,32.715,30.762,55.176
1643749433.287,18.555,27.344,35.645,20.508,-13.672
1643749433.290,20.020,25.879,28.809,21.973,30.762
1643749433.294,17.090,28.809,28.809,28.320,38.574
1643749433.298,16.113,29.297,29.785,27.344,62.012
1643749433.302,18.066,26.855,25.879,17.578,107.910
1643749433.306,22.949,27.344,25.391,7.324,62.988
1643749433.308,23.438,30.273,27.344,12.207,16.113
1643749433.312,20.996,29.297,24.414,21.973,45.898
1643749433.316,27.344,28.809,22.461,20.020,-8.789
1643749433.320,32.715,30.762,23.926,15.137,-33.691
1643749433.324,33.203,31.250,26.367,19.043,21.973
1643749433.328,31.250,30.762,22.461,24.902,20.020
1643749433.332,26.367,29.785,17.090,25.391,45.898
1643749433.335,30.762,27.832,23.438,18.066,59.570
1643749433.339,28.320,28.320,29.297,18.066,49.805
1643749433.343,20.020,28.809,28.809,28.320,79.102
1643749433.347,23.926,27.344,25.879,27.344,61.035
1643749433.351,21.973,26.367,23.438,20.508,62.500
1643749433.353,19.043,28.809,24.902,21.973,32.715
1643749433.357,21.484,28.809,22.461,26.367,34.180
1643749433.361,19.043,25.879,21.484,32.227,73.730
1643749433.365,22.461,25.391,25.391,26.367,7.324
1643749433.369,20.508,24.902,26.855,10.254,-16.602
1643749433.373,21.973,25.391,26.367,16.602,2.441
1643749433.377,24.902,25.879,27.832,30.273,28.809
1643749433.380,23.438,23.926,26.855,19.043,51.758
1643749433.384,25.879,27.344,27.832,8.789,51.758
1643749433.388,24.414,31.250,32.715,18.066,20.020
1643749433.392,20.508,31.250,38.574,30.762,6.836
1643749433.396,15.625,26.367,38.086,28.320,51.758
1643749433.413,13.672,25.879,36.621,15.137,52.246
1643749433.417,15.625,33.691,43.457,11.230,5.371
1643749433.421,17.578,32.227,53.223,16.602,41.016
1643749433.425,14.160,30.762,53.711,15.137,64.941
1643749433.429,4.395,32.227,55.664,4.883,1.953
1643749433.433,-9.766,29.785,63.965,-14.648,-5.859
1643749433.437,-30.762,30.273,66.895,-34.180,4.883
1643749433.440,-50.781,40.039,67.383,-44.922,29.297
1643749433.444,-72.266,43.945,73.730,-67.871,12.695
1643749433.448,-85.938,48.828,85.449,-93.262,-12.695
1643749433.452,-91.309,57.617,84.961,-96.680,5.859
1643749433.456,-105.957,71.777,82.031,-97.656,35.156
1643749433.443,-122.559,76.660,73.242,-113.281,56.152
1643749433.447,-135.254,69.336,68.359,-138.184,42.969
1643749433.451,-141.602,81.543,73.730,-148.438,60.547
1643749433.455,-131.836,87.891,76.172,-130.371,69.336
1643749433.459,-130.859,83.008,70.801,-126.465,84.473
1643749433.463,-133.789,77.148,64.941,-139.648,58.594
1643749433.467,-121.094,82.520,67.383,-127.441,0.488
1643749433.470,-117.676,82.031,68.359,-118.164,26.367
1643749433.474,-115.234,78.125,64.453,-117.188,66.895
1643749433.478,-109.375,86.426,60.059,-120.117,59.570
1643749433.482,-111.328,87.891,56.152,-125.000,58.594
1643749433.486,-99.609,86.426,58.105,-104.980,35.156
1643749433.488,-94.727,87.402,50.781,-94.727,-30.762
1643749433.492,-87.402,91.309,49.805,-91.797,11.719
1643749433.496,-75.195,87.402,60.059,-97.656,51.758
1643749433.500,-79.590,85.938,50.781,-98.145,41.504
1643749433.504,-78.613,87.402,39.062,-86.914,49.316
1643749433.508,-64.453,81.055,47.363,-77.637,77.148
1643749433.512,-56.641,77.637,58.594,-74.219,45.898
1643749433.515,-60.547,77.148,51.270,-77.637,23.926
1643749433.519,-50.781,72.754,53.711,-57.129,28.809
1643749433.523,-61.035,62.988,56.152,-48.340,30.762
1643749433.527,-79.102,64.941,51.270,-55.664,43.945
1643749433.531,-78.613,72.754,53.223,-50.293,16.602
1643749433.533,-72.266,65.430,45.410,-45.898,13.672
1643749433.537,-64.453,59.570,49.316,-35.156,13.184
1643749433.541,-54.199,60.547,55.664,-31.250,16.602
1643749433.545,-46.387,58.105,51.270,-44.434,16.113
1643749433.549,-44.922,59.570,47.363,-41.504,-15.137
1643749433.553,-44.922,58.105,41.992,-26.367,30.762
1643749433.557,-44.922,48.828,47.363,-29.297,65.430
1643749433.560,-36.133,48.340,50.781,-46.875,37.598
1643749433.564,-30.762,53.223,40.527,-42.969,41.016
1643749433.568,-25.391,51.758,39.551,-19.531,82.520
1643749433.572,-26.367,46.387,45.410,-11.719,49.316
1643749433.576,-29.785,44.434,43.457,-22.461,11.230
1643749433.578,-24.414,44.434,37.598,-21.484,-1.953
1643749433.582,-4.395,45.410,41.992,0.488,11.719
1643749433.586,2.441,40.039,34.180,7.324,40.039
1643749433.590,-4.883,36.621,31.738,3.906,48.828
1643749433.594,5.859,39.062,41.992,15.625,9.766
1643749433.598,27.832,36.133,44.434,30.273,-10.254
1643749433.602,38.086,34.668,42.480,38.086,25.879
1643749433.605,40.039,30.762,40.039,35.645,26.367
1643749433.609,47.363,26.367,36.133,40.039,45.898
1643749433.613,59.082,21.973,34.668,58.594,8.301
1643749433.617,67.383,18.555,33.203,72.754,-15.625
1643749433.621,83.496,14.160,31.250,83.496,36.133
1643749433.638,88.379,5.371,28.809,86.914,56.152
1643749433.642,91.797,2.441,24.414,90.820,93.750
1643749433.646,104.492,-1.465,20.996,109.375,32.715
1643749433.650,106.934,-5.859,15.625,117.188,14.160
1643749433.654,110.840,-7.812,13.184,112.793,35.156
1643749433.658,115.723,-9.766,6.348,114.746,-1.465
1643749433.662,123.535,-9.277,-0.488,121.094,62.988
1643749433.665,123.535,-12.207,2.930,124.512,75.195
1643749433.669,107.910,-13.672,1.953,111.328,25.879
1643749433.673,107.910,-11.230,0.000,107.422,-31.738
1643749433.677,119.141,-15.137,0.488,117.188,-24.902
1643749433.681,124.512,-19.043,-2.930,125.000,45.410
1643749433.683,119.629,-15.137,-4.883,117.188,11.719
1643749433.687,113.770,-14.648,-3.418,103.027,1.953
1643749433.691,111.816,-15.625,-4.395,105.957,94.238
1643749433.695,106.445,-14.160,-4.883,116.699,90.332
1643749433.699,114.258,-12.695,-1.465,113.281,60.059
1643749433.703,117.188,-8.789,2.930,100.098,17.090
1643749433.707,105.469,-7.812,1.465,98.633,-31.250
1643749433.710,102.539,-9.766,-1.953,105.469,29.785
1643749433.714,106.934,-10.254,0.000,109.863,57.617
1643749433.718,104.980,-5.859,4.395,104.004,26.855
1643749433.722,101.074,-4.395,2.441,96.191,7.324
1643749433.726,104.004,-4.883,-0.488,104.004,20.996
1643749433.728,109.863,-2.441,-3.418,114.258,40.527
1643749433.732,111.328,-0.977,-6.348,108.887,42.480
1643749433.736,104.980,-1.953,-1.465,100.098,23.926
1643749433.740,106.934,-2.930,4.395,107.910,25.879
1643749433.744,111.816,-3.418,8.789,110.352,14.648
1643749433.748,110.352,-5.859,7.812,100.098,24.414
1643749433.752,107.422,-4.395,1.953,90.820,45.410
1643749433.755,105.469,-4.395,3.906,90.820,18.066
1643749433.759,96.680,-1.953,8.789,99.121,4.883
1643749433.763,85.449,2.441,7.812,90.332,17.090
1643749433.767,91.309,-1.465,3.906,78.613,48.340
1643749433.771,102.051,-2.930,5.371,80.078,58.105
1643749433.773,88.379,-3.906,6.836,83.984,54.199
1643749433.777,73.242,-2.930,6.836,85.449,41.504
1643749433.781,71.777,1.465,8.301,82.031,51.270
1643749433.785,75.195,2.930,3.906,75.684,81.543
1643749433.789,73.242,3.418,5.371,77.148,71.777
1643749433.793,61.523,2.930,10.742,80.566,24.414
1643749433.797,63.965,4.395,9.766,74.219,25.391
1643749433.800,71.289,5.859,4.883,68.848,33.203
1643749433.804,64.453,9.277,7.812,74.707,41.016
1643749433.808,62.988,10.742,12.695,72.266,86.426
1643749433.812,68.359,10.742,14.160,68.848,45.898
1643749433.816,66.406,11.719,8.301,58.594,6.836
1643749433.819,60.059,11.719,3.418,50.293,8.789
1643749433.823,51.758,10.254,8.301,61.523,15.137
1643749433.827,55.664,13.184,11.230,61.035,49.805
1643749433.831,62.012,17.090,14.160,54.199,48.828
1643749433.835,52.734,20.508,13.184,59.570,35.156
1643749433.839,59.570,21.973,13.672,69.336,58.105
1643749433.843,73.730,21.484,19.531,73.242,36.133
1643749433.846,62.500,22.461,25.391,60.059,20.508
1643749433.850,55.664,23.438,23.926,47.852,20.996
1643749433.854,49.316,22.461,19.531,53.711,44.922
1643749433.858,53.223,21.484,20.996,62.012,31.250
1643749433.862,68.359,21.484,23.926,59.082,29.785
1643749433.863,55.176,23.438,18.555,48.828,56.152
1643749433.867,39.062,26.367,17.090,50.293,24.902
1643749433.871,46.387,23.926,23.438,60.059,-1.465
1643749433.875,52.246,23.926,17.578,56.641,19.531
1643749433.879,49.805,24.902,18.555,40.527,42.969
1643749433.883,49.805,23.926,29.785,38.574,38.086
1643749433.887,39.062,21.973,28.320,47.852,68.848
1643749433.890,31.738,22.949,24.902,45.898,32.227
1643749433.894,30.762,25.391,25.391,32.227,-0.488
1643749433.898,24.414,22.949,27.832,24.902,24.902
1643749433.902,24.902,21.973,25.879,32.227,17.090
1643749433.906,31.250,20.996,24.902,43.457,20.020
1643749433.909,32.227,17.578,28.320,36.621,7.324
1643749433.913,31.738,19.531,28.809,24.902,-10.742
1643749433.917,34.668,23.438,27.344,32.715,39.062
1643749433.921,32.715,21.484,20.508,33.203,94.727
1643749433.925,38.574,19.531,17.090,26.367,13.184
1643749433.929,43.457,21.484,28.320,25.879,-39.551
1643749433.933,31.738,23.438,34.668,25.391,21.484
1643749433.936,23.926,22.949,28.320,29.297,48.828
1643749433.940,24.902,21.973,25.391,27.344,19.043
1643749433.944,20.508,18.555,25.879,14.160,33.203
1643749433.948,18.555,20.996,20.996,20.508,60.547
1643749433.952,22.949,26.367,17.090,32.227,23.438
1643749433.954,19.043,23.926,18.555,24.414,9.766
1643749433.958,29.785,22.949,21.484,19.531,56.641
1643749433.962,39.551,24.414,23.438,26.367,59.570
1643749433.966,31.738,24.414,22.461,31.738,39.062
1643749433.970,22.949,23.926,23.926,28.320,70.312
1643749433.974,28.320,22.461,28.809,27.832,73.242
1643749433.978,36.621,23.926,34.668,25.391,-15.137
1643749433.981,34.668,22.949,32.715,30.273,-18.066
1643749433.985,32.227,21.973,32.715,44.922,81.055
1643749433.989,30.762,23.438,31.250,40.527,32.227
1643749433.993,27.832,23.438,31.738,30.762,-13.672
1643749433.997,28.809,26.855,33.691,34.180,-9.277
1643749434.013,32.715,30.273,33.691,43.457,6.348
1643749434.017,30.273,32.227,31.738,39.062,18.066
1643749434.021,27.344,25.879,21.484,26.367,36.133
1643749434.025,29.785,22.461,20.508,31.250,42.480
1643749434.029,26.367,25.879,29.785,39.551,63.965
1643749434.033,22.461,26.855,30.273,32.715,36.621
1643749434.037,28.809,28.320,28.809,17.578,-8.789
1643749434.040,28.320,28.809,31.250,16.113,21.973
1643749434.044,29.297,26.367,34.180,27.344,6.348
1643749434.048,34.180,25.391,32.227,30.762,17.578
1643749434.052,30.762,26.367,27.344,25.391,46.875
1643749434.056,21.484,28.809,28.809,14.648,23.926
1643749434.058,20.508,31.738,28.809,16.113,18.555
1643749434.062,26.367,33.203,22.949,26.855,62.988
1643749434.066,22.949,32.715,28.320,24.414,46.875
1643749434.070,24.902,33.203,29.785,18.555,26.367
1643749434.074,29.297,36.133,22.461,17.090,0.000
1643749434.078,34.668,36.621,21.973,26.367,8.301
1643749434.082,34.180,35.156,23.438,35.645,5.371
1643749434.085,32.715,35.156,21.973,31.738,17.578
1643749434.089,37.109,36.133,22.949,24.902,7.324
1643749434.093,29.297,35.156,23.926,30.762,-29.785
1643749434.097,21.484,32.715,24.414,34.668,-2.930
1643749434.101,27.344,32.227,23.926,27.344,13.184
1643749434.103,30.273,32.227,19.043,20.020,20.508
1643749434.107,34.668,33.691,25.391,26.367,10.254
1643749434.111,46.387,34.180,34.668,40.527,67.383
1643749434.115,43.457,33.203,26.855,39.551,80.566
1643749434.119,30.273,34.668,27.832,31.738,5.859
1643749434.123,31.250,31.738,34.668,31.738,30.762
1643749434.127,30.762,27.832,32.227,35.645,14.648
1643749434.130,32.227,33.691,31.250,37.598,-17.090
1643749434.134,39.551,33.691,28.809,29.297,49.316
1643749434.138,35.156,30.762,23.438,28.320,62.988
1643749434.142,28.320,29.297,22.461,39.062,10.742
1643749434.146,22.461,28.809,26.855,36.621,13.184
1643749434.149,19.531,25.879,32.715,26.367,63.477
1643749434.153,23.438,23.926,32.715,20.996,42.969
1643749434.157,18.555,24.414,32.227,20.996,35.156
1643749434.161,19.531,22.461,36.621,23.926,65.430
1643749434.165,23.438,21.484,35.645,19.043,18.066
1643749434.169,17.090,22.461,31.738,17.578,-11.230
1643749434.173,18.066,24.902,26.855,27.832,-10.254
1643749434.176,20.020,24.414,26.855,33.203,41.504
1643749434.180,23.926,24.902,27.344,28.809,67.871
1643749434.184,26.367,27.832,18.555,19.531,60.547
1643749434.188,23.926,24.902,22.461,24.414,68.359
1643749434.192,20.508,21.973,31.738,29.785,104.980
1643749434.209,25.879,24.902,33.203,23.926,111.816
1643749434.213,27.832,27.832,29.785,13.184,13.672
1643749434.217,25.879,28.809,28.809,15.137,27.832
1643749434.221,26.855,26.855,28.809,33.203,40.039
1643749434.225,21.484,22.949,24.902,34.668,43.457
1643749434.229,16.602,23.926,26.855,23.438,82.520
1643749434.233,15.137,28.809,27.344,18.066,88.379
1643749434.236,18.555,28.809,21.973,19.531,76.172
1643749434.240,20.996,30.273,24.414,23.438,43.945
1643749434.244,25.391,29.785,28.320,18.066,15.625
1643749434.248,32.227,26.855,30.273,16.113,4.395
1643749434.252,26.855,29.297,30.273,21.973,26.367
1643749434.238,18.555,30.762,26.855,25.391,22.461
1643749434.242,20.508,31.250,28.320,19.531,-17.090
1643749434.246,25.879,31.250,29.785,9.766,-26.855
1643749434.250,21.484,32.715,25.879,16.113,25.879
1643749434.254,20.020,33.203,25.879,30.273,77.637
1643749434.258,16.602,31.250,23.926,23.926,26.855
1643749434.262,17.578,30.273,17.578,6.836,0.488
1643749434.265,20.020,27.832,21.973,7.324,10.742
1643749434.269,13.184,28.809,30.273,18.066,9.277
1643749434.273,10.742,29.297,33.691,25.879,17.578
1643749434.277,23.926,27.344,34.180,23.926,22.461
1643749434.281,22.461,31.250,34.668,22.461,-2.930
1643749434.283,8.301,30.273,33.691,27.344,7.324
1643749434.287,6.348,27.344,30.762,30.762,56.152
1643749434.291,13.672,27.832,29.297,23.926,34.668
1643749434.295,21.484,25.879,26.855,20.508,-9.277
1643749434.299,30.273,24.902,30.762,29.785,13.672
1643749434.303,31.250,26.367,31.250,40.527,42.480
1643749434.307,28.809,25.879,28.320,34.668,67.383
1643749434.310,29.785,29.297,33.203,20.508,0.488
1643749434.314,25.879,32.227,29.785,24.414,4.883
1643749434.318,29.297,31.738,27.344,35.156,69.336
1643749434.322,27.832,30.762,27.832,34.180,34.180
1643749434.326,20.996,28.809,25.879,21.484,37.109
1643749434.328,19.531,29.297,23.438,20.020,44.922
1643749434.332,15.137,30.762,18.555,29.297,12.695
1643749434.336,23.926,31.250,20.020,34.668,41.992
1643749434.340,33.203,29.785,20.508,28.809,60.059
1643749434.344,28.809,30.273,16.113,20.020,-9.277
1643749434.348,29.297,28.809,17.090,24.902,39.062
1643749434.352,39.062,25.879,22.949,32.227,55.176
1643749434.355,40.527,26.367,25.879,20.996,-7.812
1643749434.359,38.574,28.809,23.926,15.137,-20.508
1643749434.363,40.039,29.297,22.949,23.438,38.086
1643749434.367,35.156,27.344,20.508,28.809,81.543
1643749434.371,29.297,26.367,22.461,26.367,81.055
1643749434.389,32.227,25.391,23.926,18.555,70.801
1643749434.393,22.461,23.926,25.391,25.391,64.453
1643749434.397,14.160,25.391,24.414,37.598,80.566
1643749434.401,18.066,25.879,21.484,43.457,41.992
1643749434.405,9.277,26.367,25.391,35.156,-25.879
1643749434.409,2.930,25.879,28.320,27.344,-3.906
1643749434.413,10.742,21.973,29.785,31.250,59.082
1643749434.416,15.625,22.949,29.297,29.785,41.992
1643749434.420,15.625,26.367,27.344,19.531,44.434
1643749434.424,24.902,27.344,26.367,10.254,-1.465
1643749434.428,22.461,28.809,27.832,14.648,-2.441
1643749434.432,15.625,25.391,27.344,23.926,74.707
1643749434.433,21.973,25.391,28.320,22.949,15.625
1643749434.437,30.273,29.297,25.391,15.137,-26.855
1643749434.441,21.973,27.832,24.414,13.672,27.344
1643749434.445,10.254,26.367,28.809,20.508,46.387
