timestamps,TP9,AF7,AF8,TP10,Right AUX
1643495789.801,41.016,30.273,31.250,38.574,108.398
1643495789.805,29.297,32.227,23.926,32.715,81.055
1643495789.809,14.160,29.785,27.344,23.438,-16.113
1643495789.813,20.020,29.785,31.738,25.391,-16.113
1643495789.817,33.691,26.367,33.691,33.203,68.359
1643495789.821,31.250,26.855,30.273,33.691,124.512
1643495789.825,12.207,29.297,25.391,31.250,41.504
1643495789.828,12.695,28.809,25.879,29.297,-11.719
1643495789.832,31.738,29.785,26.855,25.391,43.457
1643495789.836,37.598,29.785,26.367,23.438,113.770
1643495789.840,20.508,27.344,25.879,18.555,59.570
1643495789.844,11.719,25.879,27.344,17.578,-40.527
1643495789.844,11.719,25.879,27.344,17.578,-40.527
1643495789.847,23.438,27.344,27.344,26.855,3.418
1643495789.851,35.645,25.879,26.855,35.645,108.887
1643495789.855,24.902,26.367,26.855,29.785,79.102
1643495789.859,10.742,27.344,23.438,26.855,-7.324
1643495789.863,14.160,25.391,28.320,27.832,4.883
1643495789.867,30.273,24.902,34.180,25.391,98.145
1643495789.871,32.715,25.391,30.762,30.273,132.324
1643495789.874,11.719,23.926,24.414,32.227,21.973
1643495789.878,8.789,24.902,23.438,23.438,-81.543
1643495789.882,30.273,26.367,32.715,24.902,5.371
1643495789.886,32.715,27.344,32.227,25.879,107.910
1643495789.890,8.789,27.832,24.902,16.602,19.531
1643495789.891,4.395,29.785,24.902,15.625,-42.969
1643495789.895,26.855,28.809,27.832,23.438,39.551
1643495789.899,31.738,26.367,27.832,24.414,114.746
1643495789.903,15.137,24.414,25.879,17.090,41.992
1643495789.907,5.859,23.438,25.879,13.672,-59.570
1643495789.911,16.113,21.973,29.785,23.438,-32.227
1643495789.915,37.598,24.902,34.668,32.715,83.984
1643495789.918,30.762,28.809,27.344,23.926,57.617
1643495789.922,10.254,27.344,26.855,12.207,-71.289
1643495789.926,20.508,24.414,36.133,19.043,-41.992
1643495789.930,41.992,24.902,36.133,26.855,76.172
1643495789.934,32.227,26.367,31.738,28.320,98.633
1643495789.936,19.531,28.809,26.855,27.344,-16.113
1643495789.940,24.414,29.785,26.367,27.832,-47.852
1643495789.944,41.992,27.344,27.344,32.227,17.578
1643495789.948,41.992,23.926,26.855,29.785,79.590
1643495789.952,22.461,25.391,25.391,28.809,42.480
1643495789.956,20.996,26.367,24.902,32.227,-60.547
1643495789.960,38.086,24.414,27.832,37.598,-24.902
1643495789.963,47.363,22.461,26.855,38.086,41.992
1643495789.967,29.297,22.949,27.344,26.367,-9.766
1643495789.971,17.090,23.438,28.320,21.484,-22.949
1643495789.975,30.273,24.414,26.855,30.762,-19.043
1643495789.979,43.457,25.879,29.785,33.691,46.387
1643495789.981,32.227,25.391,27.832,28.809,70.801
1643495789.985,15.137,25.879,26.367,27.832,-22.949
1643495789.989,20.020,26.855,28.320,28.809,-55.176
1643495789.993,43.457,23.438,31.250,34.180,59.570
1643495789.997,41.504,22.949,25.879,33.691,90.820
1643495790.001,19.531,25.391,22.461,31.738,-4.883
1643495790.005,16.113,22.949,25.391,28.320,-43.945
1643495790.008,32.227,23.926,29.785,27.344,-5.371
1643495790.012,41.016,25.879,33.691,32.715,91.797
1643495790.016,20.508,27.344,24.902,27.832,41.504
1643495790.020,9.277,28.809,23.438,12.695,-62.500
1643495790.024,31.250,30.762,29.297,19.531,-19.043
1643495790.027,45.898,32.715,32.715,30.762,79.102
1643495790.031,28.320,31.738,23.926,27.344,52.246
1643495790.035,14.160,31.738,20.508,23.438,-23.438
1643495790.039,25.391,31.738,32.227,23.438,2.930
1643495790.043,41.504,30.273,32.715,30.273,98.633
1643495790.047,32.715,28.320,23.438,35.156,91.797
1643495790.051,18.066,29.785,20.996,26.367,-34.180
1643495790.054,18.555,29.785,29.297,19.531,-65.430
1643495790.058,39.062,27.344,35.645,32.715,59.570
1643495790.062,39.551,26.855,30.273,35.156,92.285
1643495790.066,16.113,29.297,28.320,26.367,20.020
1643495790.070,13.672,27.344,30.762,21.484,-19.043
1643495790.072,32.227,23.926,32.715,24.902,34.180
1643495790.076,42.480,29.297,31.738,30.273,132.812
1643495790.080,27.832,30.762,29.297,25.879,87.891
1643495790.084,18.066,25.879,32.715,28.809,-15.137
1643495790.088,32.227,23.438,36.133,31.738,-7.812
1643495790.092,45.898,25.391,33.203,28.809,95.703
1643495790.096,31.250,26.367,30.762,28.809,63.965
1643495790.099,16.602,22.949,30.273,25.879,-25.391
1643495790.103,26.855,22.949,28.809,29.785,-8.789
1643495790.107,44.434,22.949,28.809,30.762,113.770
1643495790.111,41.504,23.926,22.461,26.367,124.023
1643495790.115,20.508,24.902,22.461,27.832,-16.602
1643495790.131,16.113,21.973,24.414,31.738,-38.086
1643495790.135,39.062,22.949,29.785,33.203,53.223
1643495790.139,41.504,26.855,32.715,36.133,73.730
1643495790.143,15.137,22.461,24.414,28.809,-3.418
1643495790.147,6.348,21.484,22.949,20.508,-34.668
1643495790.151,27.344,27.344,28.320,25.879,3.418
1643495790.155,41.016,29.297,31.250,26.367,84.473
1643495790.158,25.879,28.809,31.250,21.484,54.688
1643495790.162,14.648,29.297,25.391,22.949,-36.621
1643495790.166,26.855,30.273,27.832,26.367,-23.926
1643495790.170,44.434,30.762,38.086,24.414,111.328
1643495790.174,37.109,30.762,33.203,25.391,85.938
1643495790.176,19.043,30.273,24.902,22.461,-10.254
1643495790.180,22.461,29.297,25.391,23.438,12.207
1643495790.184,46.875,30.273,26.855,32.715,91.309
1643495790.188,41.016,32.227,25.879,31.738,125.000
1643495790.192,16.602,29.297,24.902,25.391,-4.395
1643495790.196,21.484,28.809,26.855,24.414,-61.523
1643495790.200,41.992,32.715,30.762,31.250,57.617
1643495790.203,42.969,30.762,30.762,33.691,133.301
1643495790.207,20.996,28.809,25.391,27.344,19.043
1643495790.211,16.602,29.785,26.855,27.832,-79.102
1643495790.215,32.715,28.320,37.598,31.738,8.789
1643495790.219,43.457,27.344,34.668,35.645,129.883
1643495790.221,36.133,27.344,27.832,35.156,61.035
1643495790.225,23.926,28.809,27.832,29.785,-41.504
1643495790.229,27.832,29.785,29.785,25.879,-14.648
1643495790.233,46.875,27.344,31.738,32.715,84.961
1643495790.237,37.598,27.832,25.391,32.227,86.914
1643495790.241,15.625,27.832,24.414,21.484,-2.930
1643495790.245,22.461,26.855,30.762,21.484,-31.250
1643495790.248,36.133,26.855,30.762,24.414,47.363
1643495790.252,29.785,23.438,24.902,20.020,70.801
1643495790.256,17.090,25.879,23.438,20.508,-8.789
1643495790.260,16.113,27.832,22.949,23.438,-47.852
1643495790.264,35.645,26.367,23.438,21.484,10.254
1643495790.266,41.504,24.902,25.879,17.578,67.383
1643495790.270,18.066,27.344,24.414,14.648,43.945
1643495790.274,4.883,29.785,19.043,12.207,-12.207
1643495790.278,18.555,27.832,21.973,11.230,-7.812
1643495790.282,34.180,30.762,23.926,16.602,89.844
1643495790.286,20.996,32.227,20.020,18.555,48.828
1643495790.290,2.441,29.297,20.996,16.113,-51.758
1643495790.293,14.648,26.855,21.973,20.020,-35.645
1643495790.297,32.227,24.902,25.879,26.367,35.645
1643495790.301,20.508,27.344,26.367,29.785,62.012
1643495790.305,5.859,28.320,23.926,26.367,-17.090
1643495790.309,18.066,27.344,26.367,29.785,-53.223
1643495790.312,38.574,30.273,29.297,38.574,23.438
1643495790.316,35.156,29.297,28.809,31.250,100.586
1643495790.320,17.090,27.832,23.438,25.879,27.832
1643495790.324,13.672,29.297,21.973,21.973,-73.730
1643495790.328,30.273,30.762,27.832,20.996,-28.320
1643495790.332,37.598,29.785,27.344,25.391,59.082
1643495790.336,18.066,30.273,19.531,22.461,2.930
1643495790.339,11.719,34.180,15.625,23.926,-66.406
1643495790.343,30.762,33.691,28.320,29.297,-30.762
1643495790.347,41.016,30.273,35.156,33.691,102.539
1643495790.351,28.320,31.250,20.020,31.250,96.680
1643495790.355,12.695,33.691,16.602,28.320,-3.906
1643495790.356,21.973,35.156,23.926,23.926,19.043
1643495790.360,42.480,33.691,24.414,22.949,62.012
1643495790.364,30.273,31.738,22.461,24.414,48.340
1643495790.368,11.230,31.738,22.949,21.973,-3.418
1643495790.372,19.043,32.715,24.902,24.414,-37.109
1643495790.376,42.969,31.250,26.367,36.621,21.484
1643495790.380,41.504,30.273,24.902,36.621,82.031
1643495790.383,20.996,31.250,25.391,25.879,-4.883
1643495790.387,21.484,31.738,35.156,32.227,-52.734
1643495790.391,35.645,30.762,39.062,38.574,10.742
1643495790.395,44.922,31.250,34.668,36.133,105.469
1643495790.399,30.273,27.832,32.227,36.621,70.312
1643495790.401,12.207,25.879,32.715,26.855,-37.109
1643495790.405,19.531,29.785,33.203,26.855,-17.578
1643495790.409,43.457,29.785,34.668,41.016,96.680
1643495790.413,37.598,31.738,30.273,34.180,97.168
1643495790.417,19.531,34.180,27.832,23.926,19.531
1643495790.421,29.785,34.668,27.344,29.785,-12.207
1643495790.425,47.852,35.156,26.367,33.691,39.551
1643495790.428,41.992,33.691,26.367,33.691,91.797
1643495790.432,26.367,34.180,25.879,30.762,49.316
1643495790.436,25.391,34.180,25.391,29.297,-2.441
1643495790.440,46.387,33.691,31.250,37.598,69.336
1643495790.444,57.129,33.691,34.668,43.945,156.250
1643495790.461,44.922,34.668,28.809,42.480,58.594
1643495790.465,40.527,37.598,25.391,41.992,-2.441
1643495790.469,52.734,38.574,29.785,48.340,57.129
1643495790.473,61.523,37.598,31.250,47.852,139.160
1643495790.477,41.504,35.156,27.344,43.457,117.188
1643495790.481,29.785,36.621,22.461,42.969,22.461
1643495790.485,40.039,39.062,29.297,38.086,20.996
1643495790.488,51.758,35.156,35.156,34.180,134.766
1643495790.492,44.434,29.785,26.855,34.668,131.348
1643495790.496,29.785,27.832,22.949,33.691,23.438
1643495790.500,27.344,25.391,28.320,28.809,7.812
1643495790.504,41.504,24.902,33.203,32.715,101.562
1643495790.506,40.039,25.879,30.762,28.809,138.672
1643495790.510,20.020,24.902,23.438,18.555,50.293
1643495790.514,13.184,23.926,22.949,19.531,-12.207
1643495790.518,27.832,24.414,31.738,24.902,62.500
1643495790.522,32.227,19.531,35.645,26.367,152.344
1643495790.526,13.672,18.066,30.273,25.391,74.219
1643495790.530,9.277,20.508,33.203,34.180,10.254
1643495790.533,26.367,17.090,39.551,40.039,32.715
1643495790.537,42.480,20.020,37.598,39.551,124.512
1643495790.541,32.715,26.367,31.250,28.809,86.426
1643495790.545,21.973,27.832,35.645,25.879,-15.625
1643495790.549,35.156,27.344,41.016,35.156,17.090
1643495790.551,54.199,27.832,35.645,38.086,79.102
1643495790.555,48.340,30.273,36.133,36.621,70.801
1643495790.559,19.531,28.320,32.715,21.973,11.719
1643495790.563,15.625,30.273,28.809,15.625,-30.273
1643495790.567,40.527,30.762,41.504,30.762,51.758
1643495790.571,40.039,29.785,51.758,29.297,104.980
1643495790.575,13.184,34.180,43.945,17.090,22.949
1643495790.578,0.488,32.715,38.574,11.230,-23.926
1643495790.582,9.277,28.320,38.086,3.418,36.621
1643495790.586,6.836,34.668,40.039,-3.906,115.234
1643495790.590,-27.344,41.016,46.875,-20.996,57.129
1643495790.594,-55.176,32.227,47.852,-34.180,-52.246
1643495790.596,-41.016,29.297,48.828,-35.645,-20.508
1643495790.600,-17.578,33.691,55.176,-24.902,77.637
1643495790.604,-39.551,37.109,59.570,-23.438,59.082
1643495790.608,-65.430,39.551,60.547,-39.062,-29.297
1643495790.612,-57.129,41.992,66.895,-45.898,-47.852
1643495790.616,-58.105,41.016,77.148,-62.012,47.363
1643495790.620,-72.266,38.574,73.730,-77.637,66.406
1643495790.623,-81.055,40.527,63.965,-74.707,-34.180
1643495790.627,-72.266,36.133,64.941,-70.801,-99.609
1643495790.631,-45.410,32.715,68.848,-57.617,-22.461
1643495790.635,-41.504,34.668,62.500,-50.293,87.402
1643495790.639,-45.898,27.832,49.316,-39.062,6.836
1643495790.641,-33.203,23.926,42.969,-23.438,-88.379
1643495790.645,-13.672,23.438,40.039,-12.695,-27.344
1643495790.649,15.625,20.020,34.180,6.836,81.543
1643495790.653,17.578,24.902,22.949,13.184,26.855
1643495790.657,11.230,26.367,16.602,15.137,-44.922
1643495790.661,31.250,21.973,15.625,27.832,-38.574
1643495790.665,52.246,21.973,16.602,35.645,43.457
1643495790.668,44.434,20.508,10.742,38.574,42.480
1643495790.672,30.762,20.996,3.418,41.504,-78.613
1643495790.676,37.109,20.020,8.789,47.852,-54.688
1643495790.680,63.477,20.996,11.719,56.641,74.219
1643495790.684,65.430,23.438,10.742,64.453,74.707
1643495790.686,46.875,17.090,7.812,64.941,-21.484
1643495790.690,47.363,14.648,7.324,64.453,-61.523
1643495790.694,65.430,20.020,12.207,67.871,0.977
1643495790.698,74.219,21.973,8.301,65.430,88.867
1643495790.702,57.617,20.996,6.836,55.176,41.016
1643495790.706,50.293,20.996,4.395,51.270,-36.621
1643495790.710,66.406,20.020,7.324,57.129,-3.418
1643495790.713,77.637,21.484,14.648,61.035,50.781
1643495790.717,65.918,23.926,12.695,58.594,38.086
1643495790.721,54.688,24.902,8.789,53.711,-40.527
1643495790.725,61.035,23.926,14.160,52.734,-39.551
1643495790.729,75.684,20.508,17.578,57.129,92.285
1643495790.731,65.918,20.996,13.184,50.293,90.332
1643495790.735,42.480,21.484,12.207,42.969,-33.691
1643495790.739,41.016,22.461,15.625,43.457,-56.641
1643495790.743,55.176,23.438,18.555,49.316,48.828
1643495790.747,52.734,22.949,19.043,47.852,98.633
1643495790.751,38.086,24.902,10.254,41.504,-13.184
1643495790.755,34.668,27.832,6.348,45.898,-79.102
1643495790.758,46.387,27.344,17.578,47.852,-3.906
1643495790.762,53.711,26.855,20.508,40.527,90.820
1643495790.766,39.062,28.809,13.672,36.621,52.246
1643495790.770,27.832,28.320,15.137,37.598,-45.410
1643495790.774,40.527,27.344,18.555,40.039,-5.371
1643495790.777,54.688,25.391,19.531,41.016,103.516
1643495790.781,38.574,24.414,14.160,42.480,41.016
1643495790.785,20.508,26.367,11.230,37.598,-45.410
1643495790.789,30.273,28.320,14.160,35.645,-27.344
1643495790.793,53.223,30.273,16.113,35.645,60.547
1643495790.797,50.293,29.297,15.137,38.574,70.312
1643495790.801,25.391,30.273,13.184,33.203,-29.785
1643495790.804,20.508,30.762,18.555,28.320,-70.312
1643495790.808,41.504,26.367,21.484,29.785,28.320
1643495790.812,48.828,24.902,17.578,35.156,108.887
1643495790.816,28.320,23.438,16.602,36.133,18.066
1643495790.820,22.949,26.855,16.602,26.367,-51.758
1643495790.836,44.434,30.762,18.555,30.273,10.254
1643495790.840,50.293,28.320,20.020,37.109,80.078
1643495790.844,32.715,27.344,16.602,33.691,52.246
1643495790.848,26.855,29.297,19.043,33.203,-33.691
1643495790.852,36.621,29.785,23.438,40.527,-33.203
1643495790.856,50.781,30.273,22.949,46.387,53.711
1643495790.860,41.504,27.344,21.484,40.527,47.363
1643495790.863,21.973,25.391,21.484,27.344,-42.969
1643495790.867,29.297,26.855,21.973,22.949,-50.781
1643495790.871,48.828,28.320,22.949,29.785,37.109
1643495790.875,41.992,30.762,23.926,29.785,73.730
1643495790.879,22.461,32.227,24.902,23.438,-22.461
1643495790.881,20.020,32.227,22.461,20.020,-69.336
1643495790.885,40.527,32.715,23.926,26.367,22.949
1643495790.889,47.363,32.715,24.902,36.621,93.750
1643495790.893,27.344,28.809,23.438,33.691,26.367
1643495790.897,19.043,26.855,21.973,29.785,-50.781
1643495790.901,33.203,28.809,22.949,30.762,3.418
1643495790.905,43.945,30.273,26.367,34.668,77.148
1643495790.908,28.320,32.715,26.367,34.668,49.316
1643495790.912,17.090,34.668,22.461,28.320,1.953
1643495790.916,24.414,31.250,20.508,23.926,-29.785
1643495790.920,40.039,31.738,27.832,24.902,32.227
1643495790.924,32.715,36.621,27.832,23.438,65.918
1643495790.926,11.230,35.645,21.484,23.438,-25.391
1643495790.930,13.672,33.691,20.508,23.438,-58.105
1643495790.934,37.109,34.180,23.926,23.926,48.340
1643495790.938,41.992,32.715,24.414,23.438,92.285
1643495790.942,24.414,32.227,20.508,28.320,-18.555
1643495790.946,23.926,31.738,22.461,33.691,-64.941
1643495790.950,38.086,29.785,26.855,24.902,6.348
1643495790.953,38.574,29.785,27.832,23.438,90.820
1643495790.957,23.926,31.250,21.484,26.855,17.578
1643495790.961,18.555,33.203,21.973,22.461,-94.727
1643495790.965,30.273,34.668,32.715,22.461,-34.668
1643495790.969,41.504,34.180,33.203,28.809,82.520
1643495790.971,25.879,36.133,30.762,29.785,51.270
1643495790.975,9.766,31.250,27.344,26.367,-39.551
1643495790.979,24.902,27.344,25.879,32.715,-27.832
1643495790.983,45.898,29.297,32.227,40.039,62.012
1643495790.987,37.109,28.320,27.832,36.621,99.609
1643495790.991,20.996,27.344,20.996,34.180,6.836
1643495790.995,25.879,27.832,26.367,36.133,-43.945
1643495790.998,44.434,25.879,32.715,33.203,56.152
1643495791.002,48.340,29.297,27.344,33.203,113.281
1643495791.006,28.809,30.273,21.973,29.297,48.340
1643495791.010,22.461,25.391,24.902,26.367,-32.227
1643495791.014,38.574,27.344,30.762,30.273,-0.977
1643495791.017,43.457,29.297,32.715,35.645,86.914
1643495791.021,21.973,27.832,28.809,35.156,50.293
1643495791.025,8.789,25.391,30.273,29.297,-24.414
1643495791.029,19.043,23.926,33.203,24.414,-24.902
1643495791.033,34.668,27.344,35.156,33.203,74.219
1643495791.037,26.367,27.344,32.227,35.645,45.410
1643495791.041,8.301,24.414,26.855,23.926,-53.223
1643495791.044,19.531,28.809,27.344,23.438,-57.129
1643495791.048,42.480,28.320,35.156,31.738,35.156
1643495791.052,33.691,27.832,35.645,34.668,86.426
1643495791.056,17.090,30.273,27.344,28.809,22.949
1643495791.060,20.996,29.297,28.809,30.273,-29.785
1643495791.061,36.621,27.832,33.203,36.133,26.855
1643495791.065,42.480,26.855,33.203,36.133,88.379
1643495791.069,25.391,26.367,25.391,29.785,13.184
1643495791.073,19.043,28.320,24.902,24.902,-78.613
1643495791.077,36.621,28.320,30.273,29.785,-19.531
1643495791.081,44.922,29.785,29.297,32.227,84.961
1643495791.085,22.461,30.273,23.926,26.855,1.953
1643495791.088,13.672,31.738,26.855,20.996,-99.609
1643495791.092,31.250,33.691,37.598,19.043,-47.852
1643495791.096,49.316,31.738,37.109,26.367,99.609
1643495791.100,33.691,33.203,26.855,27.344,104.004
1643495791.104,12.695,31.738,23.438,17.578,-11.719
1643495791.106,22.949,31.738,27.832,20.508,-58.105
1643495791.110,40.039,30.762,32.715,28.320,33.691
1643495791.114,35.156,30.762,31.250,26.367,97.656
1643495791.118,20.020,33.691,27.344,22.949,0.977
1643495791.122,19.043,36.133,26.367,18.555,-52.734
1643495791.126,37.109,35.645,28.809,24.414,29.297
1643495791.130,47.363,36.133,28.809,25.391,66.895
1643495791.133,29.785,40.039,25.879,16.113,8.301
1643495791.137,20.508,40.527,28.809,21.484,-6.836
1643495791.141,35.156,40.039,29.297,27.832,51.758
1643495791.145,44.922,41.016,28.809,24.902,103.516
1643495791.149,30.762,38.574,25.391,20.020,82.520
1643495791.151,18.555,36.621,24.414,19.531,-13.184
1643495791.155,25.879,35.156,29.785,20.508,-37.598
1643495791.159,42.969,33.203,32.715,25.391,61.523
1643495791.163,37.598,32.715,31.250,29.785,74.219
1643495791.167,18.066,33.691,24.902,20.996,6.836
1643495791.171,24.414,34.180,19.531,16.602,-25.391
1643495791.175,42.480,32.715,23.438,20.020,26.855
1643495791.178,36.621,33.203,24.414,16.113,101.074
1643495791.182,18.066,34.180,20.996,20.508,40.039
1643495791.186,13.672,32.227,19.531,24.902,-52.246
1643495791.190,29.785,33.203,25.391,21.484,7.812
1643495791.194,41.016,35.156,28.320,25.879,98.633
1643495791.196,22.461,34.668,21.973,22.949,25.879
1643495791.200,15.137,33.691,20.508,17.578,-51.758
1643495791.204,33.691,35.156,22.461,21.484,-3.906
1643495791.208,46.875,33.203,25.391,22.949,100.098
1643495791.212,37.109,30.762,23.926,23.926,62.012
1643495791.216,25.391,32.227,17.090,22.949,-31.738
1643495791.220,34.180,33.203,20.996,20.996,6.348
1643495791.223,47.363,32.715,30.273,24.414,80.566
1643495791.227,34.668,32.715,21.973,25.879,79.590
1643495791.231,21.484,33.203,15.625,21.973,-9.277
1643495791.235,27.832,30.273,20.996,26.855,-31.738
1643495791.239,45.898,33.203,26.367,31.250,33.203
1643495791.256,46.875,38.086,25.391,31.738,79.102
1643495791.260,29.785,39.551,20.996,33.691,29.785
1643495791.264,22.461,34.180,27.344,32.715,-29.785
1643495791.268,34.668,30.762,29.785,40.039,46.387
1643495791.272,43.457,31.250,23.438,38.574,117.188
1643495791.276,26.855,31.738,18.066,31.738,29.785
1643495791.280,14.160,31.250,20.508,31.250,-27.344
1643495791.283,22.949,31.250,28.809,32.715,8.301
1643495791.287,40.039,29.297,29.297,39.551,69.824
1643495791.291,26.367,29.785,26.367,36.621,48.340
1643495791.295,3.906,28.320,30.762,28.320,-27.832
1643495791.299,12.207,26.367,31.250,29.785,-32.715
1643495791.301,31.250,27.832,30.273,26.367,73.730
1643495791.305,22.949,30.273,28.320,23.926,93.262
1643495791.309,4.883,32.227,22.461,21.973,-0.977
1643495791.313,10.742,31.738,20.508,29.785,-34.180
1643495791.317,33.203,28.809,25.391,36.133,21.484
1643495791.321,36.621,27.344,25.879,33.203,75.684
1643495791.325,14.160,26.367,23.926,29.297,54.199
1643495791.328,8.789,26.367,28.809,25.879,-21.973
1643495791.332,26.855,24.902,32.227,29.785,-20.020
1643495791.336,36.621,25.879,34.668,32.715,74.219
1643495791.340,18.555,25.879,37.109,26.367,72.266
1643495791.344,4.883,24.902,34.180,20.996,10.742
1643495791.346,17.090,27.344,34.180,22.461,18.066
1643495791.350,34.180,28.320,38.574,24.902,95.215
1643495791.354,25.879,24.902,38.086,27.344,98.633
1643495791.358,7.324,21.484,27.344,23.926,0.977
1643495791.362,13.672,21.973,27.832,17.578,-20.020
1643495791.366,35.645,25.391,33.691,21.484,63.477
1643495791.370,31.250,25.879,32.227,24.414,85.449
1643495791.373,10.742,23.438,29.785,23.438,3.418
1643495791.377,16.602,24.414,29.297,24.902,-31.250
1643495791.381,36.133,25.879,36.621,24.414,52.246
1643495791.385,38.574,24.414,36.133,23.926,115.234
1643495791.389,21.973,25.879,28.809,23.438,13.672
1643495791.391,13.672,27.344,31.250,23.926,-39.062
1643495791.395,32.227,26.855,37.598,32.715,20.508
1643495791.399,46.875,26.367,38.086,29.297,87.402
1643495791.403,30.762,28.320,28.320,18.555,28.320
1643495791.407,18.555,29.297,22.461,20.996,-65.430
1643495791.411,27.344,26.855,23.926,25.391,-66.406
1643495791.415,43.457,27.344,30.762,29.297,14.160
1643495791.418,40.039,29.785,25.879,25.391,96.680
1643495791.422,22.949,30.762,21.484,19.531,10.254
1643495791.426,25.879,29.297,29.297,25.391,-40.527
1643495791.430,45.898,31.250,34.668,32.715,55.664
1643495791.434,40.527,32.227,30.762,28.809,46.875
1643495791.437,20.020,31.738,20.996,21.484,-13.672
1643495791.441,18.555,33.691,23.926,21.484,-0.977
1643495791.445,32.715,33.203,29.785,29.297,16.113
1643495791.449,41.504,30.762,26.855,32.227,16.113
1643495791.453,27.344,31.250,24.902,30.762,-20.996
1643495791.457,17.578,34.668,22.949,27.344,-30.762
1643495791.461,32.715,36.621,20.996,25.391,-16.602
1643495791.464,48.828,31.738,24.414,26.367,19.531
1643495791.468,35.156,30.273,25.391,24.414,0.977
1643495791.472,16.113,33.203,25.391,22.461,-51.270
1643495791.476,25.391,33.691,26.367,18.066,-60.059
1643495791.480,48.340,31.250,31.250,22.949,45.898
1643495791.481,40.527,30.762,32.715,28.809,106.934
1643495791.485,17.578,30.273,26.855,18.066,3.418
1643495791.489,21.973,30.273,24.902,19.043,-55.664
1643495791.493,43.945,32.227,29.785,27.832,34.668
1643495791.497,43.945,31.250,30.273,27.344,96.680
1643495791.501,22.949,33.691,25.391,30.762,27.344
1643495791.505,12.695,33.691,24.902,26.855,-33.691
1643495791.508,27.344,27.344,29.785,24.414,-11.230
1643495791.512,40.527,26.367,32.715,31.250,76.660
1643495791.516,20.996,28.320,24.414,25.879,40.527
1643495791.520,9.766,31.250,22.949,25.391,-46.387
1643495791.524,27.344,31.250,27.832,33.691,-22.461
1643495791.526,44.922,33.203,32.227,37.109,76.660
1643495791.530,29.785,33.203,27.344,31.738,82.031
1643495791.534,13.672,30.762,22.949,25.879,-34.668
1643495791.538,20.020,29.785,26.855,31.738,-48.828
1643495791.542,39.551,28.809,30.762,39.551,60.059
1643495791.546,38.574,27.344,27.832,36.133,86.426
1643495791.550,18.555,27.832,20.508,26.855,14.160
1643495791.553,24.414,29.785,24.902,26.855,-48.340
1643495791.557,41.992,26.367,34.180,31.250,18.066
1643495791.561,37.109,21.484,32.227,33.691,111.816
1643495791.565,21.484,23.926,27.832,33.691,59.082
1643495791.569,11.230,26.367,28.320,30.273,37.598
1643495791.571,25.391,25.879,31.250,30.762,58.105
1643495791.575,42.480,26.855,30.762,32.227,88.867
1643495791.579,20.996,26.367,30.762,27.344,59.570
1643495791.583,5.859,26.367,31.738,25.879,0.488
1643495791.587,22.461,26.855,30.762,34.180,12.695
1643495791.591,39.062,26.367,31.738,34.668,80.078
1643495791.595,29.297,24.902,28.320,30.273,68.848
1643495791.598,15.625,24.902,29.785,28.320,5.859
1643495791.602,23.438,28.320,33.203,28.320,-12.207
1643495791.606,42.969,28.809,31.250,31.738,49.805
1643495791.610,40.039,27.344,29.785,33.203,85.449
1643495791.614,20.508,27.832,29.297,29.297,14.648
1643495791.631,19.043,30.273,27.344,25.879,-2.441
1643495791.635,31.738,30.273,29.297,23.438,61.035
1643495791.639,40.039,27.832,30.762,25.879,110.352
1643495791.643,28.320,29.785,25.391,30.273,75.684
1643495791.647,14.648,29.785,26.367,27.832,6.348
1643495791.651,32.227,29.297,28.809,35.156,3.418
1643495791.655,53.711,31.738,33.691,40.527,110.352
1643495791.658,37.598,28.809,31.250,33.203,62.012
1643495791.662,25.391,30.762,23.926,33.203,-39.062
1643495791.666,36.133,32.227,23.438,29.785,-42.480
1643495791.670,54.199,31.250,30.273,29.785,25.879
1643495791.674,44.434,31.738,29.785,33.691,53.223
1643495791.676,20.508,29.297,21.484,27.832,-16.113
1643495791.680,20.508,26.855,24.414,32.227,-26.855
1643495791.684,37.598,28.809,31.738,29.297,23.438
1643495791.688,36.133,27.344,31.738,19.531,76.172
1643495791.692,10.254,25.391,22.461,17.090,12.207
1643495791.696,5.371,24.902,20.996,17.090,-28.320
1643495791.700,25.879,24.414,30.273,26.855,35.156
1643495791.703,32.715,27.832,31.250,27.344,100.098
1643495791.707,20.508,29.785,22.461,21.484,7.812
1643495791.711,8.301,29.785,26.367,17.578,-56.641
1643495791.715,19.531,28.809,33.203,23.438,-12.207
1643495791.719,40.527,28.320,30.762,28.320,65.918
1643495791.721,25.879,27.344,28.320,21.973,72.754
1643495791.725,11.719,27.344,29.297,21.973,-9.766
1643495791.729,20.508,28.320,29.297,19.043,-33.203
1643495791.733,35.645,28.809,30.273,24.902,27.832
1643495791.737,31.738,27.832,27.832,29.297,58.105
1643495791.741,12.695,26.855,23.926,23.926,-6.348
1643495791.745,17.578,29.297,27.344,21.484,-32.715
1643495791.748,41.504,31.738,31.738,23.926,43.457
1643495791.752,48.340,31.250,28.320,25.391,64.453
1643495791.756,25.391,28.809,31.250,21.973,6.348
1643495791.760,17.578,28.809,31.738,20.996,-11.719
1643495791.764,31.738,31.250,27.344,27.832,-20.508
1643495791.767,39.062,28.809,30.762,31.250,59.570
1643495791.771,18.066,23.926,26.367,21.973,63.965
1643495791.775,2.441,26.855,22.949,21.973,18.555
1643495791.779,20.508,28.809,25.391,28.809,6.348
1643495791.783,38.086,28.320,26.855,30.762,54.199
1643495791.787,23.438,28.809,27.832,25.879,69.336
1643495791.791,10.742,29.785,25.391,22.949,28.809
1643495791.794,20.996,29.297,24.414,27.344,29.297
1643495791.798,40.039,27.832,29.297,25.879,27.344
1643495791.802,41.016,31.250,30.273,27.832,47.363
1643495791.806,26.367,35.645,24.902,31.738,14.648
1643495791.810,24.902,36.133,26.855,30.762,-13.184
1643495791.811,41.504,33.203,30.762,31.738,28.809
1643495791.815,46.875,33.203,29.297,31.250,64.941
1643495791.819,25.879,33.691,23.438,28.320,11.230
1643495791.823,15.137,30.273,23.438,20.020,-42.969
1643495791.827,30.762,30.273,27.344,23.926,-7.324
1643495791.831,47.852,31.250,25.391,37.109,71.289
1643495791.835,35.156,31.250,22.461,28.809,35.645
1643495791.838,20.996,34.668,20.996,17.090,-20.508
1643495791.842,32.227,37.109,27.344,20.996,-2.930
1643495791.846,49.805,37.598,34.668,28.320,82.520
1643495791.850,40.527,36.133,27.832,27.832,90.332
1643495791.854,17.578,35.156,23.926,25.391,-3.418
1643495791.856,18.066,31.738,29.785,26.367,-28.320
1643495791.860,37.598,28.320,35.156,32.715,53.711
1643495791.864,35.645,27.344,31.738,28.320,79.102
1643495791.868,15.137,26.855,27.832,25.391,-11.719
1643495791.872,14.160,28.320,26.855,25.391,-66.895
1643495791.876,31.250,27.832,29.785,28.809,-4.395
1643495791.880,42.480,28.809,27.832,35.156,94.238
1643495791.883,27.344,33.203,21.484,21.484,50.293
1643495791.887,14.648,30.762,25.879,11.719,8.301
1643495791.891,29.785,29.785,27.832,21.484,7.324
1643495791.895,45.410,32.227,24.902,27.344,50.781
1643495791.899,33.691,30.762,22.949,27.344,38.574
1643495791.901,19.531,28.809,23.926,29.297,-28.809
1643495791.905,25.879,30.762,27.832,32.227,-12.695
1643495791.909,44.434,32.227,32.227,38.086,76.660
1643495791.913,41.504,30.762,27.344,39.551,72.754
1643495791.917,21.973,29.785,26.367,38.086,-0.977
1643495791.921,27.344,29.297,29.297,32.715,-49.805
1643495791.925,49.805,29.297,31.738,31.250,19.531
1643495791.928,45.410,29.297,36.133,31.738,84.961
1643495791.932,24.902,29.297,34.668,31.250,-3.418
1643495791.936,24.902,29.297,34.180,31.250,-20.996
1643495791.940,44.434,30.273,34.180,35.645,64.453
1643495791.944,55.176,31.250,33.691,38.574,114.746
1643495791.947,38.086,30.762,31.250,34.668,38.574
1643495791.951,23.438,29.785,26.855,27.832,-20.996
1643495791.955,32.227,29.785,29.785,27.832,17.578
1643495791.959,51.758,32.227,33.203,33.203,77.148
1643495791.963,41.504,37.109,28.809,35.156,53.223
1643495791.967,15.625,33.203,24.902,28.320,6.836
1643495791.971,21.484,31.250,26.855,25.879,-10.254
1643495791.974,40.527,33.691,32.227,30.762,70.312
1643495791.978,30.762,29.297,27.344,26.855,121.582
1643495791.982,11.719,28.809,24.414,24.414,34.180
1643495791.986,15.137,29.785,24.414,28.809,-35.645
1643495791.990,31.738,25.391,28.320,35.156,46.875
1643495792.006,34.180,26.367,26.367,35.645,130.859
1643495792.010,19.531,29.297,20.020,26.367,37.109
1643495792.014,10.742,29.297,23.926,20.996,-44.922
1643495792.018,23.438,29.785,30.273,22.949,3.418
1643495792.022,37.109,28.809,29.297,29.785,80.078
1643495792.026,23.438,27.832,20.996,31.738,36.621
1643495792.030,12.207,27.832,23.926,21.973,-18.555
1643495792.033,22.461,27.832,33.203,30.762,14.648
1643495792.037,41.016,26.367,32.227,38.086,59.570
1643495792.041,26.855,25.391,22.461,25.391,31.738
1643495792.045,6.836,28.320,23.438,19.531,-51.758
1643495792.049,17.090,27.832,28.809,23.438,-47.852
1643495792.052,31.250,25.879,31.250,35.645,35.156
1643495792.056,24.902,28.320,33.203,27.344,88.867
1643495792.060,11.230,29.785,34.668,19.043,33.691
1643495792.064,10.254,27.832,35.156,17.578,-15.625
1643495792.068,28.320,26.855,37.109,22.949,47.852
1643495792.072,39.551,28.320,37.598,38.086,82.520
1643495792.076,20.508,28.320,36.133,33.203,20.508
1643495792.079,7.812,27.344,34.668,27.344,-13.184
1643495792.083,23.926,24.902,32.227,43.457,6.836
1643495792.087,39.551,27.832,33.691,47.852,71.777
1643495792.091,28.320,29.297,32.715,31.250,56.152
1643495792.095,16.113,29.297,25.391,17.578,-20.020
1643495792.096,29.297,30.273,24.902,16.602,8.301
1643495792.100,45.410,28.320,28.320,30.762,116.699
1643495792.104,34.180,31.250,21.973,34.180,111.816
1643495792.108,16.113,30.273,19.531,26.855,1.953
1643495792.112,20.996,29.785,23.926,27.832,-28.320
1643495792.116,43.457,31.250,29.297,34.180,62.988
1643495792.120,38.086,25.879,28.320,30.273,105.469
1643495792.123,15.137,26.367,21.484,23.926,-1.465
1643495792.127,13.184,29.297,17.578,24.414,-61.523
1643495792.131,33.691,28.809,24.414,24.902,-12.695
1643495792.135,42.480,29.785,26.855,25.879,80.566
1643495792.139,23.926,28.809,19.043,22.461,67.871
1643495792.141,13.184,26.855,16.113,20.020,-38.574
1643495792.145,26.855,29.785,21.484,18.555,-59.082
1643495792.149,45.410,33.691,28.320,28.320,68.848
1643495792.153,29.785,31.250,22.949,29.297,80.078
1643495792.157,9.277,29.297,17.090,19.531,-44.922
1643495792.161,22.461,30.273,19.531,28.809,-49.805
1643495792.165,46.875,31.250,24.902,37.598,34.668
1643495792.168,38.086,30.762,17.090,31.738,38.574
1643495792.172,19.043,29.297,14.160,25.391,-57.129
1643495792.176,22.461,29.785,21.484,26.855,-100.098
1643495792.180,40.527,30.273,21.973,28.320,19.043
1643495792.184,43.457,32.227,18.555,29.297,83.496
1643495792.186,24.414,32.227,13.672,26.855,26.367
1643495792.190,14.160,25.391,16.602,21.484,-8.789
1643495792.194,27.344,24.414,20.508,23.438,10.254
1643495792.198,43.457,30.762,18.555,29.297,76.660
1643495792.202,30.273,30.762,14.648,30.762,54.688
1643495792.206,14.160,27.344,14.648,30.273,15.625
1643495792.210,25.879,26.855,20.996,33.691,27.344
1643495792.213,38.574,25.391,23.926,35.156,59.082
1643495792.217,23.926,26.855,25.391,32.715,56.641
1643495792.221,12.207,26.855,29.785,34.180,16.113
1643495792.225,24.902,24.414,26.855,39.062,9.277
1643495792.229,40.527,25.879,30.273,45.410,75.195
1643495792.232,36.621,26.855,27.344,38.086,86.426
1643495792.236,23.438,27.832,21.484,33.203,-4.395
1643495792.240,20.020,28.320,20.996,35.156,-37.109
1643495792.244,33.203,26.367,24.902,33.691,33.203
1643495792.248,35.156,26.855,27.832,37.598,83.496
1643495792.252,19.531,27.832,21.484,35.156,39.551
1643495792.256,16.113,29.297,20.996,27.832,-25.879
1643495792.259,28.320,30.762,25.391,21.973,14.160
1643495792.263,40.527,28.809,27.832,27.344,100.098
1643495792.267,23.438,25.391,22.949,27.832,47.852
1643495792.271,2.930,25.391,23.438,17.090,-30.273
1643495792.275,14.648,28.809,28.320,20.020,-5.859
1643495792.276,32.715,27.832,29.785,27.344,84.473
1643495792.280,16.602,24.902,24.902,19.531,86.426
1643495792.284,1.465,26.367,21.973,16.602,8.301
1643495792.288,15.625,27.344,24.902,24.902,9.766
1643495792.292,35.645,27.832,30.762,31.738,61.523
1643495792.296,32.227,28.809,28.809,31.738,53.223
1643495792.300,13.184,29.785,20.020,20.508,-6.836
1643495792.303,9.277,28.809,26.855,19.043,-11.230
1643495792.307,26.367,25.391,36.133,28.320,23.438
1643495792.311,35.645,25.391,28.320,28.320,89.355
1643495792.315,19.531,25.879,23.438,19.043,-7.324
1643495792.319,10.254,24.414,27.344,17.090,-74.219
1643495792.336,21.484,25.879,28.809,18.555,-8.789
1643495792.340,35.645,27.832,28.809,21.484,87.402
1643495792.344,22.461,29.297,22.461,20.020,67.383
1643495792.348,6.836,29.297,18.555,11.719,-50.293
1643495792.352,18.066,29.785,22.461,13.672,-75.684
1643495792.356,36.133,27.832,26.855,21.484,29.785
1643495792.360,30.762,29.297,25.879,18.555,48.828
1643495792.363,15.137,33.691,27.344,16.602,-72.266
1643495792.367,22.461,31.250,29.297,21.484,-59.082
1643495792.371,40.039,29.785,26.855,23.926,40.527
1643495792.375,36.133,30.273,25.391,26.855,65.918
1643495792.379,16.602,32.227,22.949,19.043,40.527
1643495792.382,13.672,33.203,21.973,15.625,1.953
1643495792.386,33.691,30.273,25.391,20.996,27.832
1643495792.390,40.039,29.297,26.855,20.508,115.234
1643495792.394,20.508,29.785,21.484,17.578,62.988
1643495792.398,14.160,24.902,16.113,21.973,-27.344
1643495792.402,27.832,24.414,18.555,25.879,-6.836
1643495792.406,40.039,26.855,26.855,20.996,119.629
1643495792.409,28.809,26.855,23.438,18.066,131.836
1643495792.413,11.719,27.832,18.066,20.508,25.879
1643495792.417,20.508,27.832,20.508,24.902,-18.066
1643495792.421,38.574,28.809,33.203,29.785,52.246
1643495792.425,33.691,27.344,36.133,25.879,138.672
1643495792.427,19.043,28.320,24.414,23.438,42.969
1643495792.431,15.137,29.297,28.320,27.344,-36.133
1643495792.435,30.762,25.879,40.039,32.227,68.848
1643495792.439,35.156,25.391,35.156,36.133,104.492
1643495792.443,12.207,27.344,26.855,29.297,60.547
1643495792.447,8.789,26.367,24.414,22.949,21.484
1643495792.451,29.785,27.832,30.273,27.344,-19.043
1643495792.454,41.016,27.832,32.715,28.809,70.801
1643495792.458,22.949,26.367,22.461,23.926,62.500
1643495792.462,10.254,28.320,25.879,22.461,-42.969
1643495792.466,22.461,25.879,35.645,24.414,-29.297
1643495792.470,38.574,24.414,32.715,27.344,80.078
1643495792.472,28.320,27.344,27.344,26.855,102.051
1643495792.476,7.812,25.879,26.855,22.949,3.418
1643495792.480,15.137,28.320,31.738,28.320,-16.602
1643495792.484,36.621,30.762,32.715,34.668,67.871
1643495792.488,35.645,29.297,29.785,31.250,66.895
1643495792.492,19.043,30.273,23.438,34.180,-15.625
1643495792.496,20.996,35.645,24.902,32.227,-43.457
1643495792.499,33.691,32.715,28.809,29.785,20.020
1643495792.503,34.180,31.250,26.855,29.785,74.707
1643495792.507,23.438,39.062,31.738,30.762,41.504
1643495792.511,22.949,36.133,32.227,30.273,22.949
1643495792.515,41.504,31.250,28.320,29.297,22.461
1643495792.516,50.781,34.668,24.414,32.227,87.891
1643495792.520,34.180,31.250,24.414,28.809,78.125
1643495792.524,21.973,26.855,30.762,27.832,5.859
1643495792.528,28.809,32.715,32.227,27.344,10.742
1643495792.532,36.133,33.691,36.133,24.902,80.078
1643495792.536,21.484,37.109,46.387,20.508,83.008
1643495792.540,-4.395,41.992,48.340,6.348,-19.043
1643495792.543,-18.066,34.180,40.527,-12.695,-23.438
1643495792.547,-14.648,30.762,44.922,-18.555,53.711
1643495792.551,-19.043,37.109,50.781,-17.578,78.125
1643495792.555,-38.086,43.945,48.340,-25.879,39.551
1643495792.559,-62.500,47.852,53.223,-46.875,-10.254
1643495792.561,-62.988,44.434,66.406,-49.805,38.574
1643495792.565,-67.383,45.410,72.266,-57.129,93.750
1643495792.569,-94.727,46.387,69.336,-79.590,13.184
1643495792.573,-103.027,41.992,70.801,-79.102,-18.066
1643495792.577,-82.031,42.969,73.730,-63.965,55.664
1643495792.581,-62.012,46.387,73.242,-57.617,90.820
1643495792.585,-64.453,47.852,64.941,-56.641,47.363
1643495792.588,-67.871,45.410,56.641,-54.199,-32.227
1643495792.592,-52.246,39.062,59.082,-45.410,-32.715
1643495792.596,-18.066,40.527,57.129,-23.926,29.785
1643495792.600,-8.789,37.109,43.457,-10.254,41.016
1643495792.604,-5.859,30.762,36.621,0.000,-3.418
1643495792.606,10.742,32.227,34.668,9.277,-49.316
1643495792.610,31.738,30.762,31.738,15.625,-4.883
1643495792.614,48.340,27.344,25.391,28.809,36.133
1643495792.618,44.922,27.832,19.043,40.527,-27.832
1643495792.622,39.551,25.879,18.555,41.016,-64.941
1643495792.626,62.500,24.902,20.996,51.270,8.789
1643495792.630,81.055,26.367,14.160,67.871,43.945
1643495792.633,62.500,22.461,11.230,64.453,13.672
1643495792.637,51.270,19.043,17.578,62.988,13.184
1643495792.641,64.941,19.043,15.137,69.336,62.012
1643495792.645,78.125,20.020,13.672,72.266,106.934
1643495792.649,63.477,17.090,11.230,70.801,37.109
1643495792.651,48.828,15.625,8.301,64.941,-25.879
1643495792.655,55.664,19.043,12.207,65.430,-16.113
1643495792.659,75.684,21.973,16.602,64.453,12.695
1643495792.663,69.824,21.484,14.648,61.523,24.414
1643495792.667,42.480,17.578,9.766,56.641,-17.090
1643495792.671,49.316,20.020,10.742,57.617,-9.277
1643495792.675,70.801,19.531,16.113,63.965,70.801
1643495792.678,69.824,19.531,12.695,59.570,103.027
1643495792.682,53.223,19.531,8.789,50.293,-2.441
1643495792.686,50.293,19.531,11.719,51.270,-69.824
1643495792.690,66.406,24.902,16.113,56.152,-16.113
1643495792.694,78.125,26.367,20.020,62.012,81.543
1643495792.697,60.547,22.949,20.020,60.547,65.918
1643495792.701,49.805,28.320,15.625,52.734,-43.945
1643495792.705,58.594,31.250,16.602,50.293,-48.828
1643495792.709,70.801,26.367,23.926,59.082,67.383
1643495792.713,62.988,27.832,18.555,56.641,113.770
1643495792.717,39.062,28.320,10.254,46.387,53.711
1643495792.721,44.434,26.855,17.578,50.781,42.480
1643495792.724,63.965,26.367,28.320,53.223,98.145
1643495792.728,57.129,28.809,21.484,54.199,116.211
1643495792.732,36.621,27.832,18.555,55.664,76.172
1643495792.736,33.203,25.879,25.879,53.223,2.441
1643495792.740,44.922,25.391,27.344,49.316,6.836
1643495792.756,54.199,27.344,25.879,50.293,84.961
1643495792.760,37.598,27.344,22.949,47.363,51.758
1643495792.764,26.367,26.367,19.043,42.480,33.203
1643495792.768,42.480,25.879,20.508,46.387,63.965
1643495792.772,55.176,26.855,23.926,48.828,96.680
1643495792.776,42.480,27.344,22.461,43.457,26.367
1643495792.780,33.203,26.855,23.438,39.062,-17.578
1643495792.783,39.551,27.832,23.438,35.645,29.785
1643495792.787,51.758,28.809,24.414,41.016,85.449
1643495792.791,42.969,26.855,21.973,38.574,81.055
1643495792.795,27.344,28.320,19.531,31.250,3.906
1643495792.799,34.180,29.297,23.926,35.645,-0.488
1643495792.801,49.316,26.367,25.391,38.574,59.082
1643495792.805,50.293,28.809,27.832,41.504,84.961
1643495792.809,32.227,29.297,27.832,39.062,30.762
1643495792.813,30.273,26.367,20.996,35.156,9.766
1643495792.817,46.387,28.809,21.973,39.551,57.129
1643495792.821,53.223,30.762,25.879,46.387,96.191
1643495792.825,36.621,29.297,24.414,48.340,41.504
1643495792.828,20.508,26.855,24.414,44.922,-30.273
1643495792.832,31.738,29.297,23.926,37.598,12.207
1643495792.836,46.387,31.250,26.855,36.133,87.402
1643495792.840,32.227,25.391,31.250,36.133,107.422
1643495792.844,15.137,23.926,26.855,30.273,32.227
1643495792.846,21.973,24.902,26.855,30.273,-3.418
1643495792.850,39.062,25.879,32.715,32.715,103.516
1643495792.854,37.109,26.855,28.809,31.738,104.492
1643495792.858,21.973,28.809,26.367,27.832,7.324
1643495792.862,21.484,29.297,30.762,27.832,-6.836
1643495792.866,42.480,28.809,29.297,37.598,62.500
1643495792.870,45.410,30.762,24.414,38.574,102.051
1643495792.873,20.508,32.715,21.484,31.250,38.574
1643495792.877,15.625,30.762,20.020,33.203,-33.203
1643495792.881,35.645,31.250,25.391,30.273,6.836
1643495792.885,42.480,31.250,27.344,27.832,116.211
1643495792.889,24.902,28.809,22.949,26.855,49.316
1643495792.891,15.625,31.250,22.461,24.902,-41.016
1643495792.895,27.832,30.762,29.785,27.344,8.301
1643495792.899,44.922,32.715,35.645,31.250,97.168
1643495792.903,36.621,34.668,30.762,34.668,42.480
1643495792.907,18.066,31.250,28.809,31.738,-15.625
1643495792.911,21.484,28.809,30.273,30.762,17.090
1643495792.915,39.551,28.320,33.691,33.691,40.039
1643495792.918,35.645,29.785,33.691,36.133,57.617
1643495792.922,15.625,30.762,29.785,23.438,-4.883
1643495792.926,15.625,27.832,27.832,17.578,-17.578
1643495792.930,36.133,28.809,31.738,30.273,23.926
1643495792.934,39.062,28.320,32.227,33.203,74.219
1643495792.937,17.578,25.879,24.902,24.414,28.809
1643495792.941,15.137,28.809,24.902,20.508,-33.691
1643495792.945,30.273,29.785,31.250,23.438,14.160
1643495792.949,41.992,28.809,34.668,29.297,83.008
1643495792.953,29.297,32.715,29.785,26.855,26.367
1643495792.957,12.695,32.227,25.391,20.996,-13.672
1643495792.961,25.391,25.879,26.855,23.438,-4.883
1643495792.964,44.922,27.344,27.344,26.855,36.621
1643495792.968,31.738,27.832,25.879,20.996,46.875
1643495792.972,13.184,25.879,23.926,20.508,-11.719
1643495792.976,19.531,29.785,24.902,19.043,-54.688
1643495792.980,39.062,28.809,30.273,21.484,12.695
1643495792.996,39.062,25.879,31.250,23.926,91.797
1643495793.000,17.578,28.320,23.926,22.949,39.062
1643495793.004,13.672,27.344,21.484,19.531,-11.230
1643495793.008,31.738,24.902,27.344,25.879,31.250
1643495793.012,39.062,27.832,28.809,34.180,66.895
1643495793.016,22.949,27.832,23.438,33.203,35.156
1643495793.020,15.625,23.926,23.926,31.250,3.418
1643495793.023,30.762,26.367,29.297,28.320,22.949
1643495793.027,43.945,30.273,34.180,35.156,72.754
1643495793.031,27.832,28.809,31.738,38.086,52.734
1643495793.035,13.672,27.344,29.297,31.738,-13.184
1643495793.039,26.855,30.273,31.250,29.297,-21.484
1643495793.026,47.363,34.180,35.645,37.598,60.059
1643495793.030,38.086,34.180,33.203,35.645,56.152
1643495793.034,15.625,32.227,25.879,29.785,-0.488
1643495793.038,24.414,33.203,27.344,30.273,13.672
1643495793.042,45.898,33.691,34.668,34.180,55.176
1643495793.046,40.527,34.180,31.250,34.668,87.891
1643495793.050,22.949,35.156,29.297,31.738,28.809
1643495793.053,23.926,35.156,29.785,28.809,-56.152
1643495793.057,41.504,34.668,30.273,30.273,1.465
1643495793.061,50.781,32.715,26.855,34.668,82.031
1643495793.065,32.227,30.762,22.461,24.902,6.836
1643495793.069,18.066,30.762,28.809,17.090,-38.574
1643495793.086,31.250,33.691,31.250,24.414,17.090
1643495793.090,49.805,31.738,27.832,37.109,81.055
1643495793.094,36.133,27.344,26.367,32.715,75.684
1643495793.098,13.672,29.785,25.391,17.578,36.133
1643495793.102,22.949,31.250,28.320,23.438,22.461
1643495793.106,38.574,26.855,31.738,28.809,92.773
1643495793.110,31.738,26.855,24.414,20.996,77.148
1643495793.113,14.160,27.832,21.484,20.020,1.465
1643495793.117,13.672,25.879,24.902,24.902,-7.812
1643495793.121,37.598,25.879,31.738,30.273,54.688
1643495793.125,39.062,26.855,31.738,25.879,90.332
1643495793.129,11.719,23.926,26.855,20.020,6.348
1643495793.131,6.836,22.461,28.809,22.461,-43.457
1643495793.135,25.879,27.344,32.227,22.949,-9.766
1643495793.139,36.133,26.855,36.621,28.809,53.223
1643495793.143,16.113,20.996,36.133,25.879,39.062
1643495793.147,10.742,24.414,28.320,24.414,6.348
1643495793.151,32.227,26.855,25.879,27.344,14.648
1643495793.155,44.434,22.949,33.691,30.273,75.195
1643495793.158,29.785,21.484,33.691,29.297,80.078
1643495793.162,13.184,23.926,26.367,24.902,-1.465
1643495793.166,19.531,24.414,23.926,24.414,-50.781
1643495793.170,39.551,23.438,30.762,28.809,52.246
1643495793.174,32.227,22.949,29.785,30.273,126.465
1643495793.176,11.719,24.414,18.555,22.461,18.555
1643495793.180,15.137,25.391,20.508,20.020,-47.852
1643495793.184,30.273,25.391,29.297,28.320,8.789
1643495793.188,31.738,21.973,28.809,30.762,84.961
1643495793.192,14.648,21.973,20.996,23.438,39.062
1643495793.196,8.789,25.879,20.508,22.461,-21.484
1643495793.200,22.949,24.902,31.250,26.855,27.832
1643495793.203,33.691,20.508,34.668,28.809,114.258
1643495793.207,20.508,25.391,28.320,27.832,70.801
1643495793.211,8.789,27.344,30.762,29.785,-8.301
1643495793.215,17.090,22.949,36.621,33.691,5.371
1643495793.219,34.180,23.926,35.156,33.203,71.289
1643495793.221,28.320,24.902,28.320,26.855,59.082
1643495793.225,9.766,23.438,22.461,22.461,-38.086
1643495793.229,15.137,23.926,22.949,19.531,-18.555
1643495793.233,34.668,27.344,24.902,20.508,57.129
1643495793.237,38.574,31.738,23.438,24.902,70.312
1643495793.241,23.438,33.691,20.020,23.438,4.395
1643495793.245,17.578,32.227,20.020,16.602,-5.371
1643495793.248,34.180,31.250,24.902,22.461,75.684
1643495793.252,35.645,32.715,21.973,22.949,87.891
1643495793.256,17.578,32.227,19.531,15.625,35.645
1643495793.260,13.672,29.297,23.926,19.531,-19.043
1643495793.264,27.832,30.273,23.926,25.391,2.930
1643495793.267,49.805,31.738,22.461,27.832,79.590
1643495793.271,39.062,29.297,25.391,26.367,48.340
1643495793.275,21.484,27.832,28.320,26.367,-9.277
1643495793.279,29.785,25.879,26.855,27.832,20.996
1643495793.283,45.898,27.344,28.809,39.551,119.141
1643495793.287,34.668,25.391,28.320,39.551,97.656
1643495793.291,11.719,26.367,28.809,32.715,-20.508
1643495793.294,12.695,30.762,27.832,38.086,-9.277
1643495793.298,31.250,30.273,28.809,37.109,28.809
1643495793.302,29.297,27.344,33.203,33.691,68.359
1643495793.306,7.324,25.879,27.344,30.273,39.551
1643495793.310,3.418,29.297,25.391,22.461,-63.965
1643495793.326,22.461,27.832,26.367,20.508,-27.344
1643495793.330,33.691,25.391,28.809,26.855,91.797
1643495793.334,18.555,28.809,27.832,22.461,53.711
1643495793.338,11.230,29.785,26.367,18.555,-23.926
1643495793.342,31.738,31.738,29.785,24.414,10.742
1643495793.346,47.363,34.668,32.715,29.297,82.520
1643495793.350,33.691,30.762,31.738,30.273,41.504
1643495793.353,20.996,30.273,24.902,26.367,6.836
1643495793.357,26.855,28.809,26.367,26.367,-8.789
1643495793.361,44.434,25.391,31.250,34.180,18.066
1643495793.365,41.504,26.855,25.879,33.203,35.645
1643495793.369,19.531,28.809,22.461,22.461,-80.078
1643495793.357,21.973,30.273,29.297,24.414,-52.734
1643495793.361,40.039,32.227,33.691,29.297,50.293
1643495793.365,45.410,33.203,28.809,28.320,57.617
1643495793.369,27.832,35.156,24.414,27.832,34.668
1643495793.373,18.555,36.621,26.367,26.855,30.762
1643495793.377,35.645,32.715,27.344,32.715,44.434
1643495793.381,46.387,28.809,31.738,36.621,82.520
1643495793.384,29.297,30.273,34.180,28.809,33.691
1643495793.388,11.230,31.738,32.715,19.531,-15.137
1643495793.392,18.555,30.762,36.133,21.973,26.855
1643495793.396,35.645,31.250,34.180,27.832,43.945
1643495793.400,20.020,32.227,29.785,20.996,1.465
1643495793.402,-0.488,28.809,31.738,20.508,-50.293
1643495793.406,4.395,28.320,27.344,25.879,-52.734
1643495793.410,24.414,31.250,25.879,29.785,44.434
1643495793.414,19.531,27.344,25.879,25.879,53.223
1643495793.418,-1.465,27.344,21.484,20.020,-27.344
1643495793.422,3.906,30.273,22.461,25.879,-40.039
1643495793.426,24.902,31.250,29.297,31.250,-6.348
1643495793.429,35.156,33.203,31.250,29.785,42.969
1643495793.433,23.438,32.227,25.879,25.879,30.273
1643495793.437,15.625,34.668,20.508,24.902,-50.781
1643495793.441,32.715,37.109,21.973,28.320,1.953
1643495793.445,53.223,36.621,30.273,36.133,126.953
1643495793.461,41.016,35.156,28.320,31.738,80.566
1643495793.465,24.414,29.297,22.461,21.484,-17.090
1643495793.469,35.156,29.297,22.949,26.367,-6.348
1643495793.473,55.176,30.762,26.367,32.715,79.102
1643495793.477,46.387,29.297,27.344,37.109,85.938
1643495793.481,20.996,30.762,21.973,34.668,-3.418
1643495793.485,23.438,29.297,24.414,33.691,-33.203
1643495793.488,41.504,24.414,34.668,39.062,46.875
1643495793.492,37.598,26.367,33.691,29.785,93.262
1643495793.496,20.508,29.297,29.785,30.273,3.906
1643495793.500,15.625,29.297,32.715,36.133,-32.227
1643495793.504,30.762,30.762,37.109,32.715,42.480
1643495793.506,43.457,31.738,33.691,35.645,107.910
1643495793.510,26.855,30.273,25.879,28.809,79.102
1643495793.514,19.043,31.738,21.484,18.555,28.809
1643495793.518,40.039,34.668,23.438,22.461,38.086
1643495793.522,52.734,33.691,25.391,27.344,120.117
1643495793.526,38.086,33.691,22.461,23.926,68.848
1643495793.530,29.297,34.668,27.832,25.879,-44.922
1643495793.533,38.086,34.180,32.715,36.133,-46.387
1643495793.537,51.270,31.738,33.691,45.410,66.406
1643495793.541,44.434,31.738,26.855,40.039,83.008
1643495793.545,26.367,32.227,27.344,27.832,-3.906
1643495793.549,28.320,31.738,32.715,27.344,-7.812
1643495793.551,44.434,29.785,29.785,30.762,75.195
1643495793.555,46.387,27.344,26.855,33.691,72.754
1643495793.559,25.879,27.344,28.320,25.391,30.762
1643495793.563,17.090,31.250,29.297,25.879,33.691
1643495793.567,32.715,32.227,33.203,35.645,43.945
1643495793.571,39.062,29.785,35.645,39.062,119.629
1643495793.575,16.113,28.809,29.297,34.668,75.195
1643495793.578,-0.488,27.344,27.344,30.762,13.672
1643495793.582,12.695,27.832,27.344,26.855,2.930
1643495793.586,31.738,27.344,31.250,27.344,68.848
1643495793.590,19.531,27.832,33.691,23.438,86.914
1643495793.594,3.906,28.320,26.367,19.531,19.043
1643495793.596,14.160,27.344,21.973,23.438,-0.488
1643495793.600,33.691,27.344,28.809,31.250,77.637
1643495793.604,30.273,29.297,25.879,30.762,116.211
1643495793.608,7.812,29.297,19.043,19.043,17.090
1643495793.612,9.766,27.344,20.508,13.184,-43.457
1643495793.616,35.156,29.785,24.414,25.391,28.809
1643495793.620,44.922,35.156,25.879,32.227,118.164
1643495793.623,28.809,33.691,21.484,28.320,13.672
1643495793.627,24.902,31.250,15.625,25.879,-77.637
1643495793.631,40.527,31.250,26.367,25.879,33.203
1643495793.635,52.734,32.227,29.297,35.645,136.719
1643495793.639,38.574,27.832,16.602,38.086,48.340
1643495793.641,22.949,27.832,18.555,37.598,-33.691
1643495793.645,35.645,33.203,27.832,39.062,-0.488
1643495793.649,52.246,29.785,30.273,43.457,92.285
1643495793.653,38.574,27.832,25.391,31.738,81.055
1643495793.657,19.043,27.832,23.438,26.367,-22.461
1643495793.661,21.973,28.809,26.855,33.691,-44.434
1643495793.665,41.016,30.273,31.738,38.574,68.848
1643495793.668,37.598,30.762,25.391,33.691,84.961
1643495793.672,11.230,28.809,23.926,28.809,-34.180
1643495793.676,10.742,25.879,29.785,26.855,-50.781
1643495793.680,33.203,25.391,28.809,30.273,39.551
1643495793.684,40.039,24.902,27.344,38.574,87.402
1643495793.687,20.996,27.344,20.508,25.391,5.859
1643495793.691,13.672,30.273,19.531,15.625,-71.777
1643495793.695,27.832,29.297,25.391,23.438,-27.344
1643495793.699,42.969,31.738,27.344,24.414,51.758
1643495793.703,33.691,33.691,23.926,21.973,35.645
1643495793.707,17.578,30.762,19.043,20.508,3.906
1643495793.711,24.902,27.832,17.090,18.555,-3.418
1643495793.714,41.016,29.297,21.484,17.578,37.109
1643495793.718,36.133,31.250,22.461,16.602,46.387
1643495793.722,20.020,34.180,19.531,19.043,-25.391
1643495793.726,24.902,35.156,23.438,22.949,-51.758
1643495793.730,43.945,32.715,28.320,27.832,37.109
1643495793.731,36.621,34.180,28.809,22.949,82.520
1643495793.735,13.184,31.738,30.273,20.020,25.879
1643495793.739,9.766,30.762,26.367,26.855,-36.133
1643495793.743,28.809,31.250,25.879,30.762,10.254
1643495793.747,38.086,29.297,27.832,31.738,80.566
1643495793.751,20.508,27.832,22.461,28.320,40.039
1643495793.755,12.695,27.344,24.414,21.973,-15.625
1643495793.758,20.508,28.809,28.320,16.602,-7.324
1643495793.762,32.227,29.297,31.250,22.949,65.430
1643495793.766,23.438,27.832,30.273,28.320,89.355
1643495793.770,7.812,28.809,26.855,21.973,37.598
1643495793.774,17.090,28.809,29.785,20.020,8.301
1643495793.776,40.039,31.250,32.715,27.344,46.875
1643495793.780,29.297,30.273,26.855,25.391,49.805
1643495793.784,8.301,25.879,25.391,18.555,1.465
1643495793.788,17.090,25.391,27.832,19.043,-23.438
1643495793.792,38.574,26.855,29.785,22.949,15.137
1643495793.796,41.016,26.855,27.344,27.832,69.336
1643495793.800,22.461,28.809,22.461,19.531,25.879
1643495793.803,18.066,28.320,24.902,10.742,-28.320
1643495793.807,30.273,27.344,32.227,23.438,22.949
1643495793.811,41.992,27.344,31.250,36.621,80.078
1643495793.815,31.250,25.879,24.414,35.156,13.672
1643495793.819,13.184,24.902,30.273,28.320,-42.480
1643495793.836,23.438,25.391,27.832,28.809,-4.395
1643495793.840,43.457,26.855,24.902,37.598,78.125
1643495793.844,31.738,30.273,21.973,34.180,86.914
1643495793.848,13.672,28.809,24.414,26.367,24.902
1643495793.852,18.555,27.344,28.320,22.949,16.602
1643495793.856,38.574,28.320,22.949,31.250,57.617
1643495793.860,36.621,27.832,23.438,39.551,53.711
1643495793.863,15.137,27.832,27.832,28.320,-17.090
1643495793.867,12.207,27.344,22.461,18.066,-67.383
1643495793.871,36.133,29.297,24.414,25.391,32.227
1643495793.875,41.504,30.273,28.320,28.809,107.422
1643495793.879,17.578,28.320,22.949,18.555,20.020
1643495793.881,10.742,27.344,25.879,20.996,-37.109
1643495793.885,29.297,27.344,30.762,29.297,2.930
1643495793.889,44.434,27.832,30.273,30.762,52.734
1643495793.893,29.297,27.832,25.391,28.809,21.973
1643495793.897,12.695,26.855,22.461,21.973,-54.688
1643495793.901,26.367,29.297,25.391,23.438,-40.527
1643495793.905,48.828,31.250,29.785,26.367,72.754
1643495793.908,37.598,29.297,25.391,23.926,85.938
1643495793.912,21.484,29.297,19.531,27.344,-3.906
1643495793.916,30.762,31.738,20.020,24.902,-36.621
1643495793.920,47.363,33.691,29.785,28.320,42.969
1643495793.924,37.109,29.785,33.203,28.809,112.305
1643495793.926,12.207,24.902,22.949,23.926,23.438
1643495793.930,11.230,25.391,20.508,24.902,-47.363
1643495793.934,26.855,26.367,27.832,25.391,5.859
1643495793.938,39.062,28.320,30.273,37.109,87.891
1643495793.942,25.879,28.809,25.391,32.227,22.949
1643495793.946,10.254,27.832,24.902,22.461,-25.391
1643495793.950,23.926,27.832,29.785,27.344,30.273
1643495793.953,40.039,28.320,32.227,33.691,72.266
1643495793.957,26.855,30.273,22.949,22.949,33.203
1643495793.961,15.137,31.250,19.043,15.625,-29.297
1643495793.965,25.879,27.832,30.273,21.973,-30.762
1643495793.969,46.875,25.391,35.156,28.809,69.336
1643495793.971,39.551,28.320,29.785,33.203,56.641
1643495793.975,19.043,27.344,26.367,27.344,-31.738
1643495793.979,22.461,29.297,28.809,24.414,-21.973
1643495793.983,41.992,31.250,36.621,36.133,35.156
1643495793.987,41.016,27.344,37.598,33.691,85.449
1643495793.991,21.484,28.320,31.738,23.438,16.602
1643495793.995,17.578,28.320,33.691,25.879,-41.016
1643495793.998,38.086,26.855,36.621,35.645,18.066
1643495794.002,44.922,25.391,33.203,36.621,80.566
1643495794.006,20.996,24.414,31.250,28.809,64.453
1643495794.010,10.254,26.367,34.668,30.762,38.574
1643495794.014,24.414,26.367,30.762,38.574,11.230
1643495794.016,36.133,27.344,31.250,39.062,68.848
1643495794.020,22.461,30.273,29.785,31.738,85.449
1643495794.024,8.301,27.832,27.344,28.809,17.090
1643495794.028,18.066,25.879,29.785,33.691,-2.930
1643495794.032,43.457,29.785,31.738,35.156,47.852
1643495794.036,42.969,32.715,29.785,29.297,69.336
1643495794.040,19.531,30.273,28.809,27.344,20.996
1643495794.043,20.508,28.809,26.367,27.832,7.812
1643495794.047,44.434,29.785,27.344,29.785,64.941
1643495794.051,41.504,30.273,33.203,29.297,105.957
1643495794.055,18.066,31.738,26.367,21.484,35.156
1643495794.059,11.230,32.227,20.996,19.043,-20.996
1643495794.061,21.973,30.273,28.320,19.531,9.277
1643495794.065,30.762,28.809,32.715,21.973,90.820
1643495794.069,14.648,28.320,25.879,18.555,45.410
1643495794.073,2.441,26.367,26.367,17.090,0.488
1643495794.077,13.184,26.855,28.809,21.973,56.152
1643495794.081,32.227,27.832,28.809,25.879,85.938
1643495794.085,23.926,30.273,25.391,25.391,73.730
1643495794.088,8.301,32.227,19.043,16.602,24.414
1643495794.092,16.113,32.227,24.902,19.043,37.598
1643495794.096,36.621,33.691,33.691,28.809,106.445
1643495794.100,34.668,33.203,26.367,28.320,91.309
1643495794.104,14.160,33.691,20.996,25.879,-33.691
1643495794.106,12.695,31.738,27.832,26.855,-62.012
1643495794.110,33.691,28.320,29.785,28.809,41.504
1643495794.114,39.551,27.344,24.414,29.785,81.543
1643495794.118,20.996,27.832,19.531,29.297,19.043
1643495794.122,16.602,29.785,20.996,31.250,-31.250
1643495794.126,31.250,27.832,24.414,31.738,-14.160
1643495794.130,43.457,28.809,26.367,34.180,71.777
1643495794.133,28.320,29.297,24.414,30.273,58.105
1643495794.137,11.719,24.414,28.809,23.438,13.672
1643495794.141,27.344,26.855,28.809,29.297,15.625
1643495794.145,46.875,27.344,27.344,37.109,52.246
1643495794.149,35.645,23.926,28.320,29.297,38.086
1643495794.152,20.508,27.344,28.320,22.461,-26.367
1643495794.156,23.926,26.855,26.855,27.344,-11.719
1643495794.160,38.086,22.949,32.227,28.320,55.176
1643495794.164,39.551,24.414,37.109,26.855,79.590
1643495794.168,19.531,28.320,30.273,25.391,8.789
1643495794.172,15.625,28.320,27.344,28.320,-14.648
1643495794.176,36.621,27.344,27.832,31.250,40.527
1643495794.179,46.387,29.297,31.250,23.438,66.895
1643495794.183,28.320,29.785,34.180,19.531,25.879
1643495794.187,16.113,30.762,31.738,23.438,-17.090
1643495794.191,32.227,33.203,29.297,26.367,6.348
1643495794.195,49.316,31.738,33.691,30.762,89.844
1643495794.196,29.297,30.762,31.738,27.832,60.059
1643495794.200,13.672,29.785,25.391,22.949,-55.176
1643495794.204,28.320,29.297,27.344,27.344,-77.637
1643495794.208,44.922,30.762,31.738,28.809,33.203
1643495794.212,37.598,29.297,27.344,24.902,57.129
1643495794.216,17.090,27.344,20.996,19.531,-9.766
1643495794.220,18.555,28.320,24.414,10.742,-17.578
1643495794.223,41.016,29.297,34.668,18.066,31.250
1643495794.227,42.480,27.344,32.227,28.320,102.051
1643495794.231,21.484,29.785,22.949,22.949,41.992
1643495794.235,16.602,30.762,22.949,26.855,-45.898
1643495794.239,33.691,30.762,29.297,36.133,4.395
1643495794.256,40.039,30.273,30.762,27.832,85.938
1643495794.260,26.367,29.297,24.902,19.531,38.086
1643495794.264,16.602,30.273,25.391,24.902,-6.836
1643495794.268,28.320,31.738,29.785,30.273,-11.230
1643495794.272,44.922,29.297,32.227,34.668,77.637
1643495794.276,31.738,27.832,27.344,34.668,104.004
1643495794.280,15.137,27.344,28.320,30.762,-26.855
1643495794.283,21.484,25.879,33.203,33.691,-48.340
1643495794.287,41.992,27.344,32.715,43.945,77.148
1643495794.291,35.156,23.438,27.344,45.410,66.895
1643495794.295,13.672,23.926,26.367,28.809,-42.969
1643495794.299,15.137,27.344,29.297,24.414,-1.465
1643495794.301,33.691,24.414,32.715,34.668,74.219
1643495794.305,41.016,24.902,33.691,40.527,68.848
1643495794.309,23.926,28.809,31.738,35.156,14.648
1643495794.313,15.625,26.855,33.691,27.832,-9.277
1643495794.317,32.715,26.367,36.621,29.785,10.742
1643495794.321,41.504,29.297,38.086,32.715,65.918
1643495794.325,20.020,30.273,32.227,34.180,16.602
1643495794.328,11.719,30.273,31.250,29.297,-33.203
1643495794.332,29.785,31.250,30.762,25.391,4.395
1643495794.336,45.410,33.203,33.691,36.133,56.152
1643495794.340,32.715,32.227,33.203,36.621,71.289
1643495794.344,16.113,34.180,26.367,29.297,35.645
1643495794.346,20.020,34.668,27.832,28.809,-4.883
1643495794.350,37.598,30.273,34.668,34.668,37.109
1643495794.354,37.598,30.762,31.738,31.738,104.492
1643495794.358,17.578,32.227,21.973,24.414,14.160
1643495794.362,11.230,25.391,22.461,26.367,-35.645
1643495794.366,31.250,23.438,28.320,32.227,36.621
1643495794.370,38.574,27.832,28.809,30.273,93.262
1643495794.373,17.090,26.367,23.438,19.043,56.641
1643495794.377,11.230,26.855,19.043,14.648,-4.883
1643495794.381,26.855,27.832,25.391,21.973,25.391
1643495794.385,39.062,24.902,31.738,28.320,102.051
1643495794.389,27.832,25.391,23.926,24.902,67.871
1643495794.392,12.207,26.855,19.531,20.508,-14.160
1643495794.396,20.508,27.344,22.461,15.625,-7.324
1643495794.400,39.551,26.855,24.902,14.648,87.402
1643495794.404,29.297,24.414,20.996,14.648,73.242
1643495794.408,10.254,22.949,20.020,18.066,-21.973
1643495794.412,15.137,22.949,22.949,16.602,-41.992
1643495794.416,37.109,24.414,27.344,20.996,31.250
1643495794.419,38.086,27.344,23.926,24.414,95.215
1643495794.423,16.602,27.832,19.043,20.508,-7.324
1643495794.427,11.230,27.832,25.391,20.508,-94.727
1643495794.431,29.297,29.785,31.738,25.879,11.719
1643495794.435,41.016,32.227,27.344,27.344,83.984
1643495794.436,26.855,33.203,24.414,27.832,28.809
1643495794.440,14.160,30.273,31.250,23.438,-19.531
1643495794.444,20.020,27.344,30.273,20.020,-18.066
1643495794.448,32.227,27.344,28.809,25.391,47.363
1643495794.452,22.461,26.367,28.320,26.855,48.340
1643495794.456,6.348,25.879,25.391,18.555,-6.836
1643495794.460,11.230,25.879,30.273,13.672,-12.207
1643495794.463,29.785,27.832,31.250,21.484,32.715
1643495794.467,25.391,28.320,29.785,23.926,57.617
1643495794.471,11.719,31.250,32.227,17.090,1.465
1643495794.475,20.508,32.715,30.273,20.996,-45.898
1643495794.479,39.062,33.203,35.645,28.320,14.648
1643495794.481,37.598,34.668,37.598,27.344,109.863
1643495794.485,20.508,30.762,30.762,22.461,46.875
1643495794.489,13.672,29.297,28.320,19.531,-57.617
1643495794.493,28.809,32.715,31.738,26.367,0.000
1643495794.497,41.504,30.762,35.156,33.691,63.477
1643495794.501,22.949,28.809,30.273,26.367,17.090
1643495794.505,13.184,30.762,24.414,20.996,-27.832
1643495794.508,27.344,30.762,25.879,21.973,-59.082
1643495794.512,43.945,32.715,32.715,22.461,18.555
1643495794.516,36.133,33.203,29.785,23.438,78.613
1643495794.520,21.973,34.180,23.438,29.297,15.625
1643495794.524,27.344,34.180,25.391,24.902,-21.484
1643495794.526,43.945,32.715,29.297,26.855,32.227
1643495794.530,40.039,33.691,23.926,33.203,66.406
1643495794.534,20.020,37.598,16.602,27.832,-0.488
1643495794.538,17.578,38.574,20.508,18.555,-14.648
1643495794.542,36.133,37.109,27.832,22.461,57.617
1643495794.546,41.992,34.668,20.996,36.133,54.688
1643495794.550,21.484,31.738,12.207,22.461,-4.883
1643495794.553,10.254,31.250,18.555,15.625,-18.555
1643495794.557,27.832,33.203,25.391,21.973,-10.254
1643495794.561,34.668,30.273,22.461,18.555,71.289
1643495794.565,17.090,27.344,17.578,17.090,45.410
1643495794.569,12.695,29.785,22.461,26.855,-44.922
1643495794.586,22.949,31.250,27.344,31.250,-32.227
1643495794.590,31.738,27.832,22.949,21.973,80.566
1643495794.594,15.625,30.273,21.484,12.207,65.430
1643495794.598,11.230,36.133,31.738,21.973,-15.137
1643495794.602,24.414,31.738,34.668,26.855,-6.836
1643495794.606,42.969,31.738,37.598,29.785,-0.488
1643495794.610,25.391,37.109,38.574,20.508,41.504
1643495794.613,-19.043,33.691,36.621,-5.859,41.992
1643495794.617,-25.391,34.180,39.551,-8.301,-14.648
1643495794.621,-10.254,31.250,44.922,-4.883,31.738
1643495794.625,-8.301,31.738,47.852,-6.348,102.051
1643495794.629,-38.086,37.598,48.828,-26.367,102.539
1643495794.631,-62.988,36.621,58.105,-50.781,68.848
1643495794.635,-58.105,38.574,66.895,-53.223,31.738
1643495794.639,-51.270,40.039,74.219,-49.316,104.492
1643495794.643,-75.684,36.621,71.289,-60.059,93.262
1643495794.647,-87.402,36.621,62.988,-70.312,13.184
1643495794.651,-75.684,35.156,62.500,-65.430,-7.324
1643495794.655,-45.898,32.227,64.941,-49.805,45.410
1643495794.658,-33.691,29.785,60.059,-35.645,63.965
1643495794.662,-44.434,31.738,50.781,-31.738,29.785
1643495794.666,-21.973,30.762,46.387,-14.160,-2.930
1643495794.670,8.789,29.785,45.898,-2.441,31.738
1643495794.674,10.254,28.809,38.574,-4.883,71.777
1643495794.676,8.789,25.391,30.762,14.648,15.137
1643495794.680,14.648,27.344,23.438,27.344,-62.012
1643495794.684,28.809,25.879,22.949,28.809,-21.484
1643495794.688,50.781,24.414,22.461,40.039,71.289
1643495794.692,42.480,28.809,11.230,42.969,47.363
1643495794.696,31.738,25.879,5.371,41.992,19.531
1643495794.700,56.152,23.926,12.207,53.711,16.602
1643495794.703,72.754,28.809,14.648,60.547,79.590
1643495794.707,54.688,25.879,5.371,58.594,68.359
1643495794.711,45.410,25.391,3.418,57.617,-26.855
1643495794.715,61.035,28.320,8.789,60.547,-42.480
1643495794.719,75.195,22.949,12.695,64.453,9.766
1643495794.721,64.941,21.484,12.207,57.129,63.965
1643495794.725,51.758,22.949,9.277,57.617,21.973
1643495794.729,53.711,25.391,7.812,58.594,-38.574
1643495794.733,67.871,27.344,11.230,58.594,24.902
1643495794.737,66.406,25.879,14.648,61.035,59.082
1643495794.741,44.922,25.391,11.719,55.664,39.551
1643495794.745,41.992,23.438,16.113,55.176,3.906
1643495794.748,62.988,26.855,22.461,58.594,-18.555
1643495794.752,74.707,28.809,19.043,63.477,56.641
1643495794.756,53.711,25.391,18.555,55.176,36.133
1643495794.760,41.504,25.879,19.531,47.852,-6.348
1643495794.764,52.734,27.832,13.184,54.199,19.043
1643495794.766,66.895,24.902,17.090,59.570,78.613
1643495794.770,52.734,25.391,18.555,52.734,45.898
1643495794.774,34.180,28.320,10.254,49.316,-65.918
1643495794.778,42.480,25.391,12.695,51.270,-71.289
1643495794.782,58.594,26.855,19.043,49.805,33.691
1643495794.786,54.199,28.320,19.531,47.852,80.078
1643495794.790,33.691,23.438,17.090,43.945,1.465
1643495794.793,30.273,24.414,16.113,38.574,-17.090
1643495794.797,47.852,26.855,21.973,44.922,41.992
1643495794.801,50.293,27.344,26.855,47.852,52.246
1643495794.805,33.203,29.785,21.484,39.551,32.715
1643495794.809,30.273,27.832,22.461,39.551,28.809
1643495794.811,47.363,28.320,27.344,43.945,21.484
1643495794.815,58.594,30.273,25.391,41.992,91.309
1643495794.819,44.922,27.832,19.043,39.551,77.148
1643495794.823,29.785,27.344,22.461,36.133,0.488
1643495794.827,38.086,27.832,24.414,37.109,0.488
1643495794.831,53.711,31.738,23.438,41.016,24.902
1643495794.835,42.480,30.273,21.973,35.156,29.297
1643495794.838,18.555,25.391,20.020,25.879,-9.766
1643495794.842,17.578,27.344,23.926,29.785,-16.602
1643495794.846,39.062,28.809,27.832,37.109,39.062
1643495794.850,43.457,29.785,23.926,36.621,66.895
1643495794.854,22.461,30.762,17.578,30.273,-14.648
1643495794.854,22.461,30.762,17.578,30.273,-14.648
1643495794.857,16.602,30.762,22.461,25.391,-21.973
1643495794.861,43.457,32.715,28.320,30.762,40.039
1643495794.865,52.734,32.227,27.344,33.691,44.434
1643495794.869,28.809,29.785,27.832,28.320,-21.484
1643495794.873,20.508,31.250,29.785,25.391,-17.090
1643495794.877,34.180,31.250,30.273,30.762,32.227
1643495794.881,46.387,31.250,30.762,35.156,54.199
1643495794.884,35.156,29.785,26.367,33.203,41.992
1643495794.888,14.160,28.809,25.879,32.227,18.066
1643495794.892,20.996,26.855,27.832,35.645,22.461
1643495794.896,45.410,28.809,33.203,37.598,49.316
1643495794.900,38.086,29.785,30.273,28.320,89.844
1643495794.917,23.438,28.320,26.855,31.738,30.273
1643495794.921,25.879,30.273,28.809,31.250,-13.184
1643495794.925,39.551,33.203,31.738,25.391,39.062
1643495794.929,46.387,34.180,29.785,36.621,45.410
1643495794.933,26.367,32.715,23.926,35.156,-29.785
1643495794.937,19.531,28.809,24.414,30.273,-58.105
1643495794.941,35.645,28.809,24.902,36.133,-31.738
1643495794.944,44.434,31.250,27.344,32.715,22.461
1643495794.948,31.738,31.250,27.344,29.785,23.438
1643495794.952,22.461,32.227,23.438,31.738,-9.277
1643495794.956,34.668,32.227,25.391,29.785,1.953
1643495794.960,46.875,31.250,29.297,32.227,35.156
1643495794.961,34.180,29.297,24.902,29.297,58.105
1643495794.965,20.996,30.273,21.484,23.438,15.137
1643495794.969,24.902,35.156,24.414,23.438,1.465
1643495794.973,42.480,33.203,29.297,30.762,46.875
1643495794.977,40.527,27.344,28.320,30.762,81.543
1643495794.981,17.090,28.320,20.996,21.484,61.035
1643495794.985,20.508,29.785,21.973,20.508,21.973
1643495794.988,41.992,28.809,29.297,25.391,6.348
1643495794.992,45.898,31.250,32.715,25.391,48.340
1643495794.996,25.879,31.738,25.391,20.020,-13.672
1643495795.000,16.113,31.250,22.461,18.555,-62.012
1643495795.004,29.785,33.691,30.762,22.461,37.598
1643495795.006,41.016,31.738,31.738,24.902,76.660
1643495795.010,26.855,32.227,26.367,21.973,24.902
1643495795.014,15.137,31.738,26.367,21.484,-11.719
1643495795.018,29.297,29.297,29.297,21.484,28.320
1643495795.022,46.875,32.715,32.227,26.855,88.379
1643495795.026,35.156,31.250,28.320,27.344,105.469
1643495795.030,18.066,31.738,22.949,21.484,30.762
1643495795.033,23.438,31.250,26.855,21.973,39.062
1643495795.037,41.992,28.809,30.762,32.227,83.008
1643495795.041,40.527,29.785,26.855,31.738,95.215
1643495795.045,24.414,30.762,28.809,20.508,14.160
1643495795.049,23.926,29.785,32.227,30.273,-24.414
1643495795.052,42.480,28.809,29.297,37.598,42.480
1643495795.056,52.246,29.785,30.762,43.457,71.777
1643495795.060,33.691,30.273,23.926,36.621,-3.418
1643495795.064,20.508,29.785,21.973,22.949,-36.621
1643495795.068,30.273,28.809,31.738,28.809,26.367
1643495795.072,44.922,31.738,33.203,40.527,92.773
1643495795.076,31.250,30.273,24.414,39.062,57.129
1643495795.079,15.137,29.785,25.879,30.762,-36.621
1643495795.083,28.320,31.738,32.715,31.250,17.090
1643495795.087,50.781,31.250,34.180,38.574,62.500
1643495795.091,41.992,33.691,34.180,36.621,47.852
1643495795.095,17.578,31.250,32.715,31.250,12.695
1643495795.096,13.672,25.391,32.227,28.320,-12.695
1643495795.100,32.227,27.832,33.203,29.785,62.988
1643495795.104,36.133,30.762,31.250,29.785,97.656
1643495795.108,15.137,26.855,29.297,26.367,38.574
1643495795.112,12.695,25.391,27.344,26.367,-18.066
1643495795.116,30.273,27.832,29.297,29.297,-16.602
1643495795.120,33.691,27.832,32.227,32.227,44.922
1643495795.123,17.578,25.391,28.809,25.879,22.949
1643495795.127,11.719,27.832,29.297,24.902,19.531
1643495795.131,29.297,31.738,36.133,31.738,54.199
1643495795.135,40.039,30.273,37.598,35.156,68.848
1643495795.139,22.949,30.273,29.297,31.250,76.660
1643495795.141,11.230,30.273,26.855,24.902,11.719
1643495795.145,18.555,29.297,30.273,24.414,-16.602
1643495795.149,36.621,27.832,35.645,32.227,72.754
1643495795.153,33.691,29.297,30.762,32.227,79.590
1643495795.157,11.719,31.250,24.414,24.414,-2.930
1643495795.161,14.160,31.250,28.809,26.855,0.488
1643495795.165,34.668,29.785,29.785,29.297,62.012
1643495795.168,39.062,33.691,24.414,31.738,91.309
1643495795.172,22.461,35.645,20.996,23.926,16.602
1643495795.176,12.207,33.691,23.926,20.020,-23.926
1643495795.180,31.250,32.715,29.785,26.367,50.781
1643495795.184,43.457,33.691,36.133,30.273,106.934
1643495795.201,25.391,34.668,28.809,28.809,24.902
1643495795.205,17.090,36.133,23.926,27.344,-19.531
1643495795.209,32.715,36.621,26.855,30.762,16.113
1643495795.213,50.293,38.086,28.809,35.645,50.293
1643495795.217,42.969,37.598,30.273,32.227,79.102
1643495795.221,24.414,34.668,28.320,25.391,21.484
1643495795.225,28.809,33.691,29.297,23.438,9.277
1643495795.228,49.805,33.691,33.203,29.785,40.527
1643495795.232,44.922,33.691,35.156,27.344,74.219
1643495795.236,22.461,31.250,30.762,20.996,22.461
1643495795.240,27.344,27.832,27.344,25.879,-44.922
1643495795.244,49.316,28.809,35.156,35.645,68.848
1643495795.231,54.199,33.691,35.645,37.109,116.699
1643495795.235,37.109,34.668,27.832,31.250,28.320
1643495795.239,25.391,32.715,28.809,28.809,-27.344
1643495795.243,41.504,31.250,35.156,28.320,-14.648
1643495795.247,54.199,29.297,39.062,29.785,58.594
1643495795.251,33.691,32.227,32.227,26.367,12.207
1643495795.255,20.020,34.180,27.832,25.879,-56.152
1643495795.258,35.156,31.250,33.691,36.621,-14.160
1643495795.262,51.270,32.227,36.621,40.039,24.414
1643495795.266,36.133,33.203,30.762,35.156,27.832
1643495795.270,19.043,34.180,22.949,32.227,9.277
1643495795.274,23.438,33.691,24.902,26.855,-21.484
1643495795.276,37.598,30.762,37.109,32.227,42.480
1643495795.280,40.039,28.809,31.738,36.621,81.055
1643495795.284,25.391,30.273,25.391,29.297,-11.719
1643495795.288,20.020,28.809,28.809,28.320,-25.391
1643495795.292,31.738,27.832,31.250,30.273,24.902
1643495795.296,40.039,31.738,32.715,29.297,95.703
1643495795.300,26.855,32.227,28.320,29.785,-3.906
1643495795.303,20.996,30.762,31.250,30.762,-116.699
1643495795.307,32.715,30.273,39.062,31.738,-18.555
1643495795.311,41.992,31.738,36.133,28.809,54.688
1643495795.315,31.738,33.691,31.738,30.273,31.738
1643495795.319,13.184,33.203,32.715,26.855,-6.836
1643495795.322,22.461,32.715,27.344,25.391,-7.324
1643495795.326,47.852,34.180,27.832,35.156,31.250
1643495795.330,40.039,35.156,27.344,30.273,36.133
1643495795.334,19.531,35.645,26.855,26.367,0.000
1643495795.338,15.137,32.227,32.715,30.273,-20.996
1643495795.342,37.598,31.250,29.785,36.621,-1.953
1643495795.346,41.016,32.715,30.273,33.691,25.879
1643495795.349,18.555,32.227,34.180,28.809,15.625
1643495795.353,19.043,32.715,30.762,31.738,-20.508
1643495795.357,33.203,32.715,33.203,36.621,24.902
1643495795.361,39.062,34.668,32.227,36.621,86.914
1643495795.365,23.926,34.180,29.297,28.809,75.195
1643495795.381,12.207,33.203,27.832,28.809,-17.578
1643495795.385,21.973,36.621,30.762,31.250,-41.504
1643495795.389,36.133,34.668,33.691,31.250,80.078
1643495795.393,22.949,31.250,27.832,23.438,81.055
1643495795.397,5.859,29.297,27.832,15.625,4.395
1643495795.401,15.625,27.344,26.855,15.137,2.930
1643495795.405,34.180,30.762,29.785,22.949,48.340
1643495795.408,31.738,34.668,29.785,27.344,77.637
1643495795.412,13.184,33.203,26.367,24.902,35.156
1643495795.416,11.230,32.715,31.738,28.320,43.945
1643495795.420,31.738,37.109,34.180,31.250,79.590
1643495795.424,36.133,35.156,32.715,37.109,79.102
1643495795.426,20.508,31.738,27.344,39.062,66.406
1643495795.430,15.137,33.691,25.391,32.227,6.836
1643495795.434,28.320,34.180,30.273,30.762,32.227
1643495795.438,41.016,30.273,33.691,32.715,79.102
1643495795.442,24.902,30.273,27.344,24.902,49.316
1643495795.446,11.719,33.203,23.926,20.020,9.766
1643495795.450,33.203,34.668,27.832,27.344,-14.648
1643495795.453,50.293,32.715,35.645,29.785,38.086
1643495795.457,35.156,33.691,30.273,28.320,56.641
1643495795.461,17.090,34.668,22.949,26.855,-11.719
1643495795.465,22.461,34.668,33.203,28.809,0.488
1643495795.469,44.434,33.691,39.551,34.180,57.617
1643495795.472,41.992,34.668,31.738,34.180,65.918
1643495795.476,23.926,37.598,25.391,30.762,33.203
1643495795.480,25.879,37.598,30.273,31.250,15.137
1643495795.484,43.457,38.086,34.668,34.668,61.523
1643495795.488,44.922,36.133,30.762,35.645,77.637
1643495795.492,25.879,36.133,25.391,34.180,36.621
1643495795.496,16.113,35.645,26.367,34.180,6.348
1643495795.499,27.832,34.180,31.250,33.691,-0.977
1643495795.503,39.551,34.668,31.250,26.367,25.391
1643495795.507,24.414,34.668,29.785,24.902,2.441
1643495795.511,7.324,36.621,30.273,20.020,4.883
1643495795.515,14.648,33.203,28.809,21.484,38.086
1643495795.517,36.621,31.738,30.762,34.180,13.184
1643495795.521,30.273,31.738,31.250,29.785,55.664
1643495795.525,10.742,31.738,26.855,18.555,27.344
1643495795.529,17.090,34.668,27.344,24.902,-28.320
1643495795.533,35.156,33.203,29.297,27.344,15.625
1643495795.537,38.086,30.273,26.367,19.531,60.059
1643495795.541,17.090,34.180,24.414,18.555,10.742
1643495795.544,9.277,33.203,22.949,25.391,-17.578
1643495795.548,31.250,31.250,27.832,30.762,25.879
1643495795.552,42.480,34.668,31.250,27.344,43.457
1643495795.556,20.508,34.668,22.949,26.855,29.297
1643495795.560,10.742,34.180,23.438,27.344,26.855
1643495795.563,29.297,33.691,30.273,33.203,53.711
1643495795.567,43.457,33.691,33.691,38.574,88.867
1643495795.571,24.902,33.203,26.367,30.273,33.691
1643495795.575,7.324,31.738,23.438,15.137,10.254
1643495795.579,20.508,30.273,26.367,19.043,24.414
1643495795.583,38.574,30.273,28.320,32.715,49.316
1643495795.587,30.273,31.738,27.832,26.367,47.363
1643495795.590,9.766,33.691,20.996,17.090,-6.348
1643495795.594,12.695,34.180,23.926,13.672,27.832
1643495795.598,33.203,32.715,34.668,20.020,94.727
1643495795.602,36.621,33.691,28.809,24.902,62.988
1643495795.606,22.461,35.156,20.508,20.020,0.488
1643495795.606,21.973,33.691,23.926,15.137,6.836
1643495795.610,41.016,33.691,26.855,20.996,52.246
1643495795.614,50.781,35.156,22.461,28.320,91.797
1643495795.618,34.668,37.109,19.531,27.344,39.062
1643495795.622,24.902,37.598,20.020,20.996,-16.602
1643495795.626,29.785,36.133,19.043,25.879,0.000
1643495795.630,41.504,37.109,22.949,31.738,79.102
1643495795.633,30.273,39.551,21.973,20.996,64.453
1643495795.637,12.695,41.504,23.438,18.066,-35.156
1643495795.641,19.531,41.504,27.344,24.902,-8.789
1643495795.645,38.086,39.062,29.785,30.273,52.246
1643495795.649,34.180,37.109,27.832,29.297,69.824
1643495795.651,15.137,37.598,21.973,29.297,28.320
1643495795.655,15.625,34.668,25.879,28.809,8.301
1643495795.659,29.785,30.762,30.273,24.414,8.789
1643495795.663,34.668,33.203,28.320,27.832,46.875
1643495795.667,20.020,34.668,25.879,30.273,42.969
1643495795.671,15.625,34.668,26.367,28.320,-46.387
1643495795.675,34.180,35.156,30.273,33.691,-37.109
1643495795.678,45.410,33.203,37.109,40.527,42.969
1643495795.682,28.320,31.250,36.621,38.086,19.043
1643495795.686,15.625,32.715,30.762,32.715,-52.734
1643495795.690,28.320,33.203,31.250,34.180,-28.320
1643495795.694,44.922,32.227,37.598,40.527,40.039
1643495795.696,34.180,32.715,32.715,36.621,23.926
1643495795.700,20.020,30.273,27.344,30.273,-1.465
1643495795.704,26.855,29.297,29.785,33.203,40.527
1643495795.708,46.875,32.715,33.203,37.109,53.223
1643495795.712,42.969,31.250,30.273,39.062,48.828
1643495795.716,22.461,32.715,20.508,31.738,7.324
1643495795.720,22.949,35.645,21.973,23.926,-37.598
1643495795.723,44.922,34.668,31.738,37.109,13.184
1643495795.727,52.246,38.086,28.809,45.410,88.867
1643495795.731,30.762,37.598,20.508,35.645,33.203
1643495795.735,19.043,29.785,24.414,26.855,1.465
1643495795.739,33.203,31.738,28.320,28.320,26.855
1643495795.756,45.898,32.715,28.809,32.227,54.688
1643495795.760,31.250,29.297,24.414,24.902,31.250
1643495795.764,16.113,32.715,22.949,21.973,29.297
1643495795.768,26.855,33.203,29.297,29.297,24.414
1643495795.772,45.898,33.203,32.715,31.738,27.344
1643495795.776,37.109,37.109,24.414,28.809,78.613
1643495795.780,15.625,38.086,20.508,21.973,55.176
1643495795.783,20.996,37.598,23.926,24.414,1.465
1643495795.787,41.504,35.156,23.438,34.668,24.414
1643495795.791,40.039,36.133,22.461,31.738,77.637
1643495795.795,21.484,37.109,25.879,29.785,13.184
1643495795.799,18.066,36.133,24.414,30.273,-32.715
1643495795.801,36.133,32.227,26.855,33.203,25.879
1643495795.805,47.852,31.738,31.250,33.691,52.246
1643495795.809,32.227,35.156,27.832,27.832,15.137
1643495795.813,20.508,35.645,24.902,25.391,41.992
1643495795.817,29.297,36.133,23.926,23.926,62.988
1643495795.821,43.457,37.598,27.344,32.715,58.105
1643495795.825,30.762,39.062,28.320,31.250,36.621
1643495795.828,12.207,33.203,24.414,19.531,20.020
1643495795.832,21.973,31.738,20.020,20.020,8.789
1643495795.836,40.527,35.156,24.414,23.926,18.066
1643495795.840,35.156,32.715,29.297,29.297,34.668
1643495795.844,15.625,30.273,24.902,28.320,-17.090
1643495795.846,15.137,31.738,26.367,23.926,-8.301
1643495795.850,35.156,31.250,33.691,27.832,34.180
1643495795.854,37.598,33.691,30.762,32.715,86.426
1643495795.858,15.137,32.227,25.879,28.320,88.867
1643495795.862,10.254,30.273,28.809,22.949,40.039
1643495795.866,27.344,34.668,29.785,28.320,73.730
1643495795.870,40.039,33.691,31.738,34.180,123.047
1643495795.873,25.391,32.227,31.738,27.832,56.641
1643495795.877,13.184,31.250,31.738,21.973,-8.789
1643495795.881,24.414,32.227,35.645,25.391,33.203
1643495795.885,41.504,33.691,35.645,36.133,109.863
1643495795.889,36.133,34.668,30.273,32.227,60.547
1643495795.891,18.066,34.180,28.809,22.461,-9.277
1643495795.895,21.484,32.715,34.180,22.949,4.395
1643495795.899,40.039,32.227,37.598,35.645,43.945
1643495795.903,38.086,33.691,31.250,39.062,41.992
1643495795.907,22.461,32.227,28.809,36.133,10.254
1643495795.911,22.461,29.785,31.250,40.039,8.301
1643495795.915,36.621,28.809,37.109,37.598,35.156
1643495795.918,40.527,27.344,34.668,37.598,38.086
1643495795.922,26.367,29.297,29.297,33.691,0.488
1643495795.926,18.066,31.738,35.156,32.227,-7.324
1643495795.930,31.738,34.180,33.691,37.598,27.832
1643495795.934,43.945,32.227,28.320,33.203,58.105
1643495795.936,27.832,31.250,24.414,27.344,10.254
1643495795.940,16.602,35.645,22.949,27.832,-41.016
1643495795.944,29.297,35.645,27.344,31.250,-15.625
1643495795.948,42.480,33.691,29.297,34.180,29.785
1643495795.952,30.762,32.227,25.391,31.250,57.129
1643495795.956,15.137,34.180,23.438,25.879,2.441
1643495795.960,23.438,36.621,25.391,31.738,-28.320
1643495795.963,43.945,37.109,27.344,39.551,32.227
1643495795.967,39.062,35.645,28.809,36.133,38.086
1643495795.971,16.113,35.645,28.809,31.250,73.242
1643495795.975,16.602,35.156,27.832,34.180,64.941
1643495795.979,32.227,30.273,29.297,38.574,45.410
1643495795.981,40.039,30.762,28.320,41.504,77.637
1643495795.985,21.484,32.715,25.879,37.598,51.270
1643495795.989,10.742,30.762,24.902,30.762,-24.414
1643495795.993,23.438,29.297,29.297,31.250,-2.930
1643495795.997,35.645,28.809,30.273,36.621,82.520
1643495796.001,23.926,28.320,27.344,30.273,56.641
1643495796.005,7.324,29.785,26.367,24.414,34.668
1643495796.008,20.508,29.297,27.832,27.832,-7.324
1643495796.012,43.457,32.715,36.621,33.203,63.477
1643495796.016,32.715,32.715,32.227,30.273,82.520
1643495796.020,14.648,29.785,26.367,23.438,-4.883
1643495796.024,19.531,29.785,27.344,25.879,1.465
1643495796.027,36.133,29.297,36.133,32.715,33.691
1643495796.031,32.227,27.832,33.691,31.250,20.996
1643495796.035,12.695,29.297,25.879,29.785,-41.016
1643495796.039,12.695,28.809,33.203,27.832,-18.555
1643495796.043,29.297,30.273,35.156,26.855,21.973
1643495796.047,36.621,28.320,32.227,31.250,24.902
1643495796.051,25.879,28.320,26.855,30.762,-19.043
1643495796.054,18.555,30.273,28.809,24.414,40.039
1643495796.058,30.762,26.855,31.738,29.297,82.520
1643495796.062,47.852,28.809,29.785,36.133,31.250
1643495796.066,34.180,30.762,23.926,27.832,24.414
1643495796.070,15.137,29.297,22.949,24.414,4.883
1643495796.086,25.879,32.715,25.391,27.344,0.000
1643495796.090,43.945,33.691,25.879,28.320,63.477
1643495796.094,34.180,32.227,20.020,21.484,45.898
1643495796.098,17.090,34.180,19.043,12.695,-19.531
1643495796.102,19.043,35.156,24.414,21.484,7.324
1643495796.106,38.086,36.621,27.832,30.762,9.766
1643495796.110,41.992,38.574,22.949,23.926,15.137
1643495796.113,20.996,37.598,19.531,14.160,14.160
1643495796.117,15.137,36.133,20.996,21.973,32.715
1643495796.121,31.738,33.203,26.367,28.320,77.148
1643495796.125,40.527,32.715,31.738,31.250,59.082
1643495796.129,24.414,32.715,27.344,30.762,55.664
1643495796.131,9.277,32.715,21.484,23.926,41.992
1643495796.135,20.020,33.203,25.391,26.855,1.465
1643495796.139,36.133,27.832,31.738,31.738,64.941
1643495796.143,24.414,28.809,26.855,28.809,59.082
1643495796.147,6.348,31.738,22.461,26.855,38.086
1643495796.151,13.184,31.738,23.438,32.715,45.410
1643495796.155,31.738,30.762,32.227,33.691,65.918
1643495796.158,29.785,28.809,31.738,23.438,44.434
1643495796.162,14.648,30.273,23.438,18.066,54.199
1643495796.166,14.160,31.250,18.066,17.090,36.133
1643495796.170,31.738,31.250,28.809,18.555,36.133
1643495796.174,41.016,30.273,35.156,26.855,70.801
1643495796.176,21.973,29.297,24.414,22.949,3.906
1643495796.180,12.207,29.297,24.902,20.996,-32.227
1643495796.184,28.809,32.227,34.180,32.227,-8.301
1643495796.188,44.922,31.250,34.668,43.945,34.180
1643495796.192,27.832,29.785,26.367,42.969,0.977
1643495796.196,11.230,30.762,21.973,36.133,-39.062
1643495796.200,25.879,28.320,26.367,41.992,-30.762
1643495796.203,43.457,26.855,30.273,50.781,20.996
1643495796.207,36.621,27.832,27.344,45.410,61.523
1643495796.211,17.578,29.785,26.367,34.668,0.977
1643495796.215,22.461,31.738,34.180,35.156,-42.480
1643495796.219,43.457,28.809,36.133,41.016,20.020
1643495796.222,42.480,27.344,28.809,35.645,73.242
1643495796.226,26.855,26.855,25.879,31.738,31.250
1643495796.230,21.973,26.855,27.832,29.297,3.906
1643495796.234,32.227,29.785,29.785,24.902,57.617
1643495796.238,42.969,33.691,27.344,29.785,52.246
1643495796.242,27.832,31.738,25.879,30.273,-1.465
1643495796.246,14.648,31.250,28.809,24.414,16.113
1643495796.249,30.762,35.156,29.297,26.367,58.105
1643495796.253,47.852,33.691,26.367,34.668,46.875
1643495796.257,25.879,31.738,25.879,25.391,-7.812
1643495796.261,6.348,32.227,26.855,20.508,-7.812
1643495796.265,20.508,32.715,27.344,24.414,-25.391
1643495796.266,38.086,34.180,32.227,21.484,10.742
1643495796.270,33.203,35.645,32.227,22.461,48.828
1643495796.274,13.184,35.156,26.367,20.996,-3.418
1643495796.278,15.625,32.715,24.414,21.484,31.738
1643495796.282,36.133,32.715,26.855,29.297,84.961
1643495796.286,37.109,33.691,28.320,29.785,49.316
1643495796.290,19.043,35.156,27.344,26.855,11.719
1643495796.293,15.625,34.180,26.367,29.785,-8.789
1643495796.297,30.762,34.180,28.809,32.715,3.418
1643495796.301,39.551,34.180,32.715,33.203,79.590
1643495796.305,24.414,34.668,25.391,21.973,20.996
1643495796.309,8.301,34.180,22.949,14.160,-3.418
1643495796.312,19.043,33.203,26.855,15.137,93.750
1643495796.316,45.898,36.621,26.367,19.043,79.102
1643495796.320,37.598,35.156,26.367,23.926,30.762
1643495796.324,15.137,34.180,22.949,13.672,17.578
1643495796.328,22.461,38.574,18.066,5.371,12.695
1643495796.332,35.645,37.109,23.926,11.230,30.762
1643495796.336,23.926,34.180,21.973,10.742,74.707
1643495796.339,1.953,34.180,16.602,2.441,59.082
1643495796.343,0.000,33.203,23.438,3.906,-15.137
1643495796.347,24.414,34.180,30.762,18.555,-13.184
1643495796.351,32.715,33.203,28.320,27.344,39.062
1643495796.355,14.160,29.785,20.996,23.926,36.621
1643495796.356,11.719,31.250,19.531,28.809,-11.230
1643495796.360,27.344,30.762,22.949,37.598,25.879
1643495796.364,39.062,29.297,25.879,39.551,29.785
1643495796.368,27.344,32.715,24.902,40.039,8.789
1643495796.372,18.066,33.691,22.949,35.645,68.848
1643495796.376,26.855,31.250,23.926,35.645,62.012
1643495796.380,41.992,31.250,23.926,40.039,50.293
1643495796.383,35.645,31.250,22.461,34.668,31.250
1643495796.387,16.113,31.738,27.344,25.391,1.465
1643495796.391,20.020,34.180,27.832,24.902,15.625
1643495796.395,36.621,32.227,30.762,30.273,28.320
1643495796.399,29.297,31.738,33.691,29.785,66.895
1643495796.401,6.836,32.715,29.297,21.973,44.434
1643495796.405,7.324,33.203,26.855,22.949,-31.738
1643495796.409,32.715,32.227,31.250,29.785,-8.301
1643495796.413,35.645,31.738,31.738,30.762,32.227
1643495796.417,20.508,36.133,29.785,27.832,-18.066
1643495796.421,17.090,36.133,30.273,29.297,-28.809
1643495796.425,25.391,33.691,30.762,29.785,41.992
1643495796.428,39.062,32.715,30.273,30.762,76.172
1643495796.432,21.484,29.297,26.855,29.297,39.062
1643495796.436,2.930,28.809,26.855,26.855,38.574
1643495796.440,16.113,31.738,29.297,31.250,15.137
1643495796.444,33.691,31.738,36.621,32.227,2.441
1643495796.446,30.762,29.785,37.598,36.621,8.301
1643495796.450,11.230,31.738,27.344,37.109,6.836
1643495796.454,10.742,32.227,21.973,34.668,7.324
1643495796.458,32.715,29.785,32.227,43.457,39.551
1643495796.462,31.250,28.809,30.273,38.086,52.246
1643495796.466,14.160,28.320,20.508,26.367,-19.043
1643495796.470,13.184,30.273,24.414,20.020,-11.230
1643495796.473,29.785,33.203,29.785,24.414,23.438
1643495796.477,33.691,33.203,28.809,30.273,68.848
1643495796.481,12.695,31.738,22.949,22.461,93.750
1643495796.485,8.789,31.738,19.531,21.973,44.922
1643495796.489,25.879,33.691,22.949,26.855,23.926
1643495796.506,41.016,36.133,26.367,22.461,74.707
1643495796.510,27.344,38.574,23.438,17.578,27.832
1643495796.514,7.812,34.668,26.367,19.043,-6.348
1643495796.518,20.508,33.691,24.902,20.508,27.832
1643495796.522,41.992,33.691,21.484,23.438,26.367
1643495796.526,32.227,31.250,20.508,28.320,62.012
1643495796.530,10.254,31.738,21.484,23.438,55.176
1643495796.533,12.207,32.227,25.879,20.020,-2.930
1643495796.537,31.738,30.762,28.320,28.320,10.254
1643495796.541,39.062,28.320,24.902,30.273,27.832
1643495796.545,22.461,30.273,23.926,20.508,8.301
1643495796.549,16.602,30.273,26.855,22.461,-10.742
1643495796.552,31.738,29.297,29.785,29.785,25.879
1643495796.556,42.480,31.250,31.250,31.250,73.730
1643495796.560,28.809,30.273,26.855,31.738,44.922
1643495796.564,14.160,31.738,23.926,25.879,-15.625
1643495796.568,28.809,32.715,23.926,25.879,-9.766
1643495796.572,53.711,34.180,28.809,32.715,87.891
1643495796.576,43.457,35.156,29.785,26.855,73.242
1643495796.579,18.066,35.645,24.414,19.531,-6.348
1643495796.583,22.461,37.598,22.461,21.484,0.488
1643495796.587,42.969,35.645,28.320,23.438,22.949
1643495796.591,39.551,32.715,31.738,24.902,63.965
1643495796.595,21.484,30.762,28.320,26.367,39.062
1643495796.597,20.508,31.250,30.762,27.344,-0.488
1643495796.601,38.574,31.250,32.715,30.273,54.199
1643495796.605,46.387,32.227,30.273,35.645,85.938
1643495796.609,28.320,32.715,27.344,32.715,90.332
1643495796.613,14.648,30.762,23.438,20.996,48.340
1643495796.617,35.156,31.250,29.297,27.832,41.992
1643495796.621,57.129,33.691,39.551,41.992,87.402
1643495796.624,35.156,29.785,32.227,41.016,22.461
1643495796.628,20.020,27.832,20.508,35.645,-36.133
1643495796.632,24.902,28.320,24.414,25.391,-32.227
1643495796.636,40.527,25.391,36.621,26.367,-14.160
1643495796.640,39.062,29.785,35.645,39.062,-3.906
1643495796.641,18.066,32.715,30.762,34.668,-9.277
1643495796.645,16.113,28.320,31.250,23.438,15.137
1643495796.649,29.785,29.785,35.156,25.879,56.152
1643495796.653,13.672,29.297,42.480,18.555,74.707
1643495796.657,-7.324,39.062,49.316,14.648,18.555
1643495796.661,-7.812,46.875,46.387,11.230,-5.371
1643495796.665,-6.348,32.227,48.340,1.465,39.551
1643495796.668,-11.230,29.785,46.387,-11.719,49.316
1643495796.672,-34.180,35.645,45.898,-29.297,41.016
1643495796.676,-51.758,36.133,56.641,-34.668,-8.301
1643495796.680,-47.363,39.062,71.777,-41.504,-11.230
1643495796.684,-39.551,42.480,80.566,-47.363,70.801
1643495796.686,-53.711,39.062,77.637,-51.758,50.781
1643495796.690,-70.312,39.551,74.707,-50.293,-29.297
1643495796.694,-62.988,41.504,76.172,-50.781,9.277
1643495796.698,-44.434,41.016,81.055,-53.223,78.125
1643495796.702,-62.988,38.086,83.496,-61.523,67.383
1643495796.706,-87.891,36.621,82.520,-67.871,45.410
1643495796.710,-81.543,38.086,77.637,-69.824,12.695
1643495796.713,-50.293,38.086,71.289,-56.152,40.039
1643495796.717,-32.715,35.156,65.918,-35.156,69.824
1643495796.721,-41.992,28.809,57.617,-31.738,32.227
1643495796.725,-28.320,25.391,50.781,-20.996,-13.184
1643495796.729,-2.441,24.414,49.805,-9.277,7.812
1643495796.731,10.742,23.926,44.922,-1.465,83.984
1643495796.735,11.230,21.973,34.668,11.230,61.523
1643495796.739,10.742,18.555,24.902,20.508,27.832
1643495796.743,27.344,19.043,26.855,25.879,49.805
1643495796.747,53.711,18.066,26.367,33.691,80.078
1643495796.751,48.828,16.602,17.090,42.480,42.969
1643495796.755,35.645,18.066,9.766,43.945,26.855
1643495796.758,51.758,16.113,10.742,52.246,5.371
1643495796.762,78.613,15.625,15.625,64.941,74.707
1643495796.766,68.848,17.090,8.789,59.082,91.797
1643495796.770,46.387,16.113,0.977,56.641,8.789
1643495796.774,60.059,18.066,2.441,70.801,30.273
1643495796.791,79.590,21.484,2.930,67.383,71.289
1643495796.795,77.637,20.996,-1.953,62.012,63.965
1643495796.799,58.594,20.508,-2.441,60.059,-1.465
1643495796.803,51.758,19.043,1.465,53.711,-17.578
1643495796.807,75.684,20.996,5.859,65.918,34.668
1643495796.811,88.379,25.391,10.742,70.312,44.922
1643495796.815,65.430,23.926,6.836,59.570,74.219
1643495796.818,50.781,22.461,3.906,54.688,43.945
1643495796.822,60.547,21.484,7.324,60.547,-17.090
1643495796.826,75.195,22.461,9.277,69.336,24.902
1643495796.830,65.918,23.438,7.812,63.965,6.836
1643495796.834,46.387,22.949,8.789,61.523,-14.160
1643495796.821,50.781,24.414,9.766,63.477,-20.996
1643495796.825,71.777,25.391,11.719,63.965,17.090
1643495796.829,62.988,23.438,11.230,66.406,47.852
1643495796.833,43.457,23.438,12.207,63.965,-17.578
1643495796.837,48.340,24.414,13.672,61.523,-8.789
1643495796.841,62.988,23.438,15.625,59.570,18.555
1643495796.845,64.453,24.902,18.555,54.199,62.012
1643495796.848,46.387,24.902,18.066,50.781,47.852
1643495796.852,39.062,24.414,21.484,43.945,-0.977
1643495796.856,56.152,24.414,17.578,43.457,42.969
1643495796.860,70.312,24.414,14.160,51.270,77.148
1643495796.864,51.758,25.879,18.066,49.805,56.641
1643495796.881,39.551,25.391,18.555,50.293,20.996
1643495796.885,50.781,25.879,20.020,49.316,-5.859
1643495796.889,61.523,27.832,23.438,48.828,35.156
1643495796.893,51.270,27.344,17.578,50.293,2.441
1643495796.897,38.574,28.320,16.113,45.410,-18.555
1643495796.901,42.480,28.320,17.090,44.922,24.414
1643495796.905,54.688,26.367,19.043,44.434,35.156
1643495796.908,48.340,25.391,19.043,46.387,76.660
1643495796.912,31.250,26.855,17.090,41.504,92.773
1643495796.916,34.668,29.785,15.625,37.109,19.531
1643495796.920,47.852,29.785,20.996,40.039,4.883
1643495796.924,54.688,29.785,23.926,42.969,46.387
1643495796.926,41.016,33.203,19.043,40.527,26.855
1643495796.930,25.879,32.227,21.484,34.668,-7.324
1643495796.934,36.621,31.250,26.367,34.180,30.273
1643495796.938,52.734,31.738,26.855,36.621,105.469
1643495796.942,40.527,33.691,21.973,37.598,54.688
1643495796.946,20.996,31.738,20.020,33.691,-37.598
1643495796.950,23.926,26.855,25.879,31.250,-18.555
1643495796.953,44.922,28.809,32.715,34.668,64.453
1643495796.957,37.598,30.273,27.344,34.180,95.215
1643495796.961,16.113,30.273,23.438,30.273,19.043
1643495796.965,18.555,30.273,29.297,32.715,-5.859
1643495796.969,38.574,28.809,32.715,39.062,21.973
1643495796.971,39.062,28.809,27.832,34.180,34.180
1643495796.975,16.602,31.250,24.902,31.738,2.930
1643495796.979,9.277,28.809,29.297,33.203,-52.734
1643495796.983,28.809,24.902,29.785,30.762,-20.508
1643495796.987,44.922,28.809,27.832,30.273,58.594
1643495796.991,21.973,26.367,21.973,30.273,41.016
1643495796.995,8.789,24.414,25.391,29.785,-13.672
1643495796.998,27.832,27.832,36.133,29.785,46.387
1643495797.002,44.922,28.320,33.203,31.250,71.777
1643495797.006,31.738,27.832,30.273,35.645,24.902
1643495797.010,16.113,26.367,30.762,31.738,8.301
1643495797.014,26.855,23.926,30.762,30.762,-30.273
1643495797.017,41.016,28.320,30.273,35.645,29.785
1643495797.021,35.156,29.785,29.297,32.715,49.316
1643495797.025,21.973,27.832,30.273,26.367,30.762
1643495797.029,20.020,30.762,23.926,21.973,86.914
1643495797.033,35.645,31.250,25.879,31.738,74.707
1643495797.037,41.016,29.785,32.715,34.668,57.617
1643495797.041,20.020,28.320,32.227,29.297,39.062
1643495797.044,9.766,29.297,26.367,30.273,-9.766
1643495797.048,28.809,30.273,27.832,28.809,-52.246
1643495797.052,40.039,28.809,36.133,35.645,-23.926
1643495797.056,20.020,28.809,33.203,37.598,13.184
1643495797.060,6.348,30.273,27.344,30.762,10.742
1643495797.061,20.508,28.320,30.762,33.691,9.766
1643495797.065,34.668,30.762,32.715,38.574,63.965
1643495797.069,27.344,31.738,24.414,36.133,44.434
1643495797.073,15.625,24.414,23.438,40.039,6.348
1643495797.077,18.066,23.438,25.391,39.062,32.715
1643495797.081,32.715,26.855,27.832,33.203,62.500
1643495797.085,26.367,27.832,29.297,31.250,50.293
1643495797.088,1.953,29.785,22.949,20.020,1.465
1643495797.092,-2.441,31.250,27.344,11.719,28.809
1643495797.096,12.695,30.273,33.203,19.531,67.871
1643495797.100,22.949,28.320,29.785,26.855,72.754
1643495797.104,15.625,25.879,27.344,27.344,23.438
1643495797.106,13.184,25.391,27.344,27.344,5.859
1643495797.110,36.133,26.855,29.297,28.320,34.180
1643495797.114,51.270,25.391,30.762,35.645,47.852
1643495797.118,36.133,26.367,22.949,32.715,15.137
1643495797.122,26.855,27.344,20.996,32.715,-27.832
1643495797.126,38.086,29.785,25.879,40.527,-24.414
1643495797.130,56.641,30.273,24.902,38.086,11.719
1643495797.133,41.016,24.902,21.973,29.785,21.484
1643495797.137,13.672,25.391,25.879,26.855,13.672
1643495797.141,17.090,26.855,30.273,35.645,58.105
1643495797.145,32.227,26.855,32.227,36.621,93.262
1643495797.149,30.273,26.367,27.832,32.227,64.941
1643495797.152,15.625,28.320,22.949,29.785,21.973
1643495797.156,16.113,30.273,23.438,27.832,37.109
1643495797.160,30.273,29.785,28.320,27.832,41.504
1643495797.164,36.133,27.832,30.273,27.344,88.379
1643495797.168,21.484,29.785,25.391,20.020,51.270
1643495797.172,14.160,30.273,22.949,16.602,23.438
1643495797.176,30.762,29.297,18.066,17.578,40.039
1643495797.179,43.457,29.785,25.391,23.438,36.621
1643495797.183,25.391,31.250,29.297,20.996,45.410
1643495797.187,13.672,31.250,20.508,15.625,-23.438
1643495797.191,27.832,31.738,21.973,20.996,-62.012
1643495797.195,46.387,33.203,28.809,26.855,7.812
1643495797.196,39.062,35.156,25.879,30.273,21.484
1643495797.200,19.043,38.086,20.996,22.461,-1.953
1643495797.204,24.902,37.598,20.508,19.043,14.160
1643495797.208,40.527,33.691,25.879,21.973,24.902
1643495797.212,37.109,31.738,29.297,21.484,84.473
1643495797.216,20.996,30.273,24.414,20.508,76.172
1643495797.220,15.625,30.762,21.973,20.020,-1.465
1643495797.223,29.297,30.762,31.250,27.344,0.977
1643495797.227,41.504,29.297,33.691,33.203,69.824
1643495797.231,22.949,32.715,27.344,28.320,30.762
1643495797.235,8.789,33.691,26.367,25.879,11.230
1643495797.239,20.020,31.250,29.785,23.926,11.230
1643495797.256,34.668,28.320,27.832,24.902,38.574
1643495797.260,25.879,27.344,25.391,27.832,42.480
1643495797.264,6.836,30.273,26.855,25.391,-41.504
1643495797.268,19.043,31.738,30.273,27.832,-25.391
1643495797.272,45.898,29.785,36.621,35.645,71.289
1643495797.276,40.527,30.273,28.809,31.250,63.477
1643495797.280,20.508,29.785,21.973,24.414,-10.254
1643495797.283,20.020,29.297,27.832,23.926,14.160
1643495797.287,41.992,30.273,34.180,30.762,61.523
1643495797.291,49.316,26.855,35.156,35.156,79.102
1643495797.295,27.832,25.391,36.133,31.250,3.418
1643495797.299,21.973,25.391,37.598,32.715,-48.828
1643495797.301,37.109,24.414,37.109,34.180,-38.086
1643495797.305,47.363,25.391,36.621,38.574,22.949
1643495797.309,35.156,29.297,31.250,37.598,78.613
1643495797.313,21.484,28.809,28.320,30.762,-11.230
1643495797.317,27.832,29.297,30.762,29.785,-15.137
1643495797.321,42.480,28.320,33.203,35.156,84.473
1643495797.325,32.227,24.902,30.273,32.227,78.613
1643495797.328,12.207,27.344,27.344,28.809,-15.137
1643495797.332,16.113,24.414,27.832,29.785,-5.859
1643495797.336,35.645,20.996,31.738,30.762,37.598
1643495797.340,27.832,23.926,34.668,21.973,65.918
1643495797.344,7.812,24.902,31.250,18.555,50.781
1643495797.346,12.207,24.414,30.762,22.461,19.043
1643495797.350,32.715,22.949,35.156,30.762,48.340
1643495797.354,40.039,24.414,32.715,39.551,81.543
1643495797.358,25.391,28.320,27.832,35.156,37.598
1643495797.362,19.043,24.902,27.832,32.715,4.395
1643495797.366,32.227,19.531,26.367,40.527,36.133
1643495797.370,47.852,24.414,30.273,46.387,56.152
1643495797.373,37.598,28.809,27.344,38.086,43.457
1643495797.377,19.531,27.832,24.414,32.715,17.090
1643495797.381,23.926,27.832,31.738,30.762,-14.648
1643495797.385,44.434,28.320,36.621,34.180,46.875
1643495797.389,39.551,29.297,30.762,35.156,104.980
1643495797.391,20.508,30.273,28.809,29.297,76.172
1643495797.395,22.949,31.738,29.297,30.273,26.855
1643495797.399,40.527,34.180,31.250,37.598,71.289
1643495797.403,41.992,33.691,29.297,40.039,100.586
1643495797.407,19.043,29.785,21.973,29.785,35.645
1643495797.411,11.719,28.320,19.531,26.367,-2.930
1643495797.415,36.621,27.832,26.855,34.668,38.574
1643495797.418,40.039,27.344,26.367,31.738,59.082
1643495797.422,14.160,29.297,19.043,20.996,-4.395
1643495797.426,9.766,31.250,24.902,18.555,-18.555
1643495797.430,25.391,30.762,33.203,21.484,32.715
1643495797.434,35.645,29.785,36.621,21.484,53.223
1643495797.466,29.297,31.738,29.785,20.020,39.551
1643495797.470,12.695,31.250,24.902,19.531,1.953
1643495797.474,20.996,32.227,32.227,21.484,5.859
1643495797.478,44.922,33.691,37.109,30.273,76.172
1643495797.482,37.109,33.203,30.273,31.250,64.941
1643495797.486,20.508,31.738,26.855,25.391,13.184
1643495797.490,23.438,32.715,31.250,27.344,15.137
1643495797.493,39.062,34.668,33.691,27.832,60.547
1643495797.497,39.551,33.691,35.645,26.367,81.055
1643495797.501,19.043,33.203,27.344,21.973,6.348
1643495797.505,18.555,33.691,17.578,18.066,-38.086
1643495797.509,41.504,32.715,26.367,26.855,-3.906
1643495797.482,47.363,25.879,30.273,27.344,38.574
1643495797.486,28.320,26.367,25.391,24.414,45.410
1643495797.490,19.531,31.738,24.902,26.367,5.371
1643495797.494,29.297,28.809,28.320,26.855,-27.344
1643495797.498,41.016,28.809,37.109,28.320,43.945
1643495797.502,34.180,33.691,29.785,25.391,57.129
1643495797.506,18.555,33.691,25.391,25.391,7.812
1643495797.509,20.508,31.250,32.715,26.367,-12.207
1643495797.513,41.016,30.273,36.621,31.738,46.387
1643495797.517,41.504,31.250,28.809,30.273,80.566
1643495797.521,20.508,29.785,24.902,23.926,20.996
1643495797.525,20.996,30.273,25.879,30.762,-0.977
1643495797.526,42.969,31.250,28.320,35.156,46.875
1643495797.530,47.852,33.203,31.738,35.156,54.688
1643495797.534,29.297,30.762,22.949,31.250,5.859
1643495797.538,23.438,30.762,21.484,24.414,7.812
1643495797.542,41.992,33.203,28.320,25.391,10.254
1643495797.546,55.176,29.785,28.809,33.203,43.945
1643495797.550,32.715,26.367,23.438,33.203,28.320
1643495797.553,15.625,28.320,23.926,19.531,51.758
1643495797.557,29.785,30.762,30.273,23.926,65.918
1643495797.561,48.340,30.762,31.738,40.527,52.734
1643495797.565,36.621,31.250,29.297,33.691,38.574
1643495797.569,17.090,31.738,27.344,23.438,8.301
1643495797.571,19.043,29.785,29.297,27.832,2.441
1643495797.575,36.621,27.832,32.227,32.715,18.066
1643495797.579,38.574,28.809,29.785,30.762,42.969
1643495797.583,16.602,28.320,29.297,24.902,52.734
1643495797.587,15.625,28.809,27.344,26.855,49.805
1643495797.591,37.109,29.297,25.391,30.762,50.781
1643495797.595,38.086,27.832,28.809,30.273,52.734
1643495797.598,15.137,27.832,32.227,26.367,21.973
1643495797.602,6.836,27.344,33.691,26.855,-1.465
1643495797.606,23.438,24.902,35.645,36.133,-20.508
1643495797.610,39.062,22.461,37.109,41.504,36.133
1643495797.614,24.902,23.438,32.227,33.203,38.086
1643495797.631,12.695,23.438,27.832,26.367,-5.859
1643495797.635,25.391,24.414,26.855,29.297,-14.160
1643495797.639,41.504,27.344,31.250,36.133,21.973
1643495797.643,34.668,28.320,30.762,36.133,18.066
1643495797.647,17.578,27.832,28.320,30.273,24.902
1643495797.651,22.461,26.367,28.809,30.273,16.602
1643495797.655,38.574,26.855,29.785,29.785,1.953
1643495797.658,38.086,29.297,30.762,32.227,20.020
1643495797.662,26.367,30.273,26.367,29.297,11.230
1643495797.666,21.973,30.762,17.090,24.902,11.719
1643495797.670,32.715,29.785,25.879,32.227,37.598
1643495797.674,40.527,29.297,33.203,29.785,46.875
1643495797.676,23.438,29.785,23.926,19.531,17.090
1643495797.680,8.301,30.273,23.438,20.996,53.711
1643495797.684,19.531,28.320,28.320,20.020,62.012
1643495797.688,36.133,27.344,30.762,22.949,17.578
1643495797.692,27.832,29.297,25.391,26.367,22.949
1643495797.696,15.137,28.809,21.973,21.973,20.508
1643495797.700,20.508,27.344,27.832,20.020,68.848
1643495797.703,40.039,27.832,30.762,30.762,95.703
1643495797.707,35.156,29.297,23.926,29.297,23.926
1643495797.711,16.113,29.785,21.484,19.531,-39.062
1643495797.715,15.625,28.809,27.832,20.996,0.000
1643495797.719,30.762,27.832,33.203,22.461,39.062
1643495797.721,35.645,27.832,31.738,26.367,41.016
1643495797.725,21.484,26.855,26.855,26.855,53.223
1643495797.729,17.578,26.855,26.855,24.414,-28.809
1643495797.733,34.668,28.809,31.738,29.785,-30.762
1643495797.737,41.992,29.785,34.668,34.180,82.031
1643495797.741,23.926,29.297,28.809,28.809,85.449
1643495797.745,10.742,28.320,23.926,28.320,49.805
1643495797.748,21.973,29.785,24.902,31.250,26.367
1643495797.752,38.574,29.785,26.855,29.785,-2.441
1643495797.756,27.344,26.367,29.297,20.996,15.137
1643495797.760,10.254,27.832,27.832,20.020,3.418
1643495797.764,17.090,29.297,23.926,25.391,-38.086
1643495797.766,39.062,29.297,26.367,32.227,0.488
1643495797.770,35.645,29.785,24.902,26.855,35.645
1643495797.774,16.113,28.809,20.508,22.461,0.488
1643495797.778,16.113,29.785,21.973,26.855,-29.297
1643495797.782,31.738,31.250,27.344,28.320,5.371
1643495797.786,31.738,28.320,25.391,26.367,45.898
1643495797.790,14.160,27.832,22.461,28.320,49.316
1643495797.793,7.324,26.855,21.973,23.926,69.824
1643495797.797,23.926,26.855,22.461,19.043,28.809
1643495797.801,37.598,26.367,26.855,27.344,5.371
1643495797.805,22.949,23.926,22.461,29.785,-30.273
1643495797.809,14.648,24.414,20.020,25.391,-50.781
1643495797.811,28.809,25.879,24.414,27.344,32.227
1643495797.815,50.293,26.855,31.250,34.668,70.312
1643495797.819,44.922,29.297,28.320,34.668,41.992
1643495797.823,25.879,30.762,25.391,32.715,30.273
1643495797.827,26.367,27.344,30.273,40.039,45.898
1643495797.831,44.434,24.902,30.273,44.922,82.520
1643495797.835,41.992,25.391,27.344,34.180,100.098
1643495797.838,21.484,25.879,21.973,30.273,54.688
1643495797.842,18.555,27.344,23.926,29.297,5.371
1643495797.846,33.691,27.832,32.715,32.227,2.930
1643495797.850,37.598,26.855,28.809,38.574,41.992
1643495797.854,20.020,26.367,24.414,35.645,23.926
1643495797.856,8.789,26.367,27.344,29.297,-19.043
1643495797.860,21.973,24.902,29.785,30.762,-1.953
1643495797.864,37.109,23.438,31.250,38.086,31.738
1643495797.868,18.066,24.414,29.297,32.227,88.867
1643495797.872,5.859,25.391,26.367,22.461,51.270
1643495797.876,18.066,23.926,30.273,27.832,8.789
1643495797.880,34.180,24.414,34.180,31.738,35.156
1643495797.883,32.715,27.832,32.715,31.738,12.695
1643495797.887,15.137,30.273,31.250,28.809,11.719
1643495797.891,12.695,31.250,29.297,21.484,19.043
1643495797.895,31.738,29.297,32.715,23.926,29.297
1643495797.899,32.227,28.320,31.738,23.438,-0.488
1643495797.901,6.836,25.391,29.785,19.043,-44.434
1643495797.905,5.859,26.855,30.762,23.926,23.438
1643495797.909,29.297,32.227,32.715,26.367,39.551
1643495797.913,37.598,30.273,33.691,29.297,59.570
1643495797.917,20.996,27.832,27.344,26.855,82.031
1643495797.921,11.230,29.297,21.973,17.090,12.207
1643495797.925,27.344,29.297,25.391,12.207,15.137
1643495797.928,45.410,31.738,31.738,20.020,33.203
1643495797.932,33.203,32.227,33.691,21.973,-2.441
1643495797.936,18.555,30.273,28.809,18.066,35.645
1643495797.940,23.926,33.203,28.320,23.438,111.328
1643495797.944,35.156,29.297,32.227,25.879,104.492
1643495797.947,31.738,26.367,30.273,26.367,65.918
1643495797.951,11.719,28.809,28.320,19.043,8.789
1643495797.955,12.207,27.832,30.762,17.578,-14.648
1643495797.959,37.598,29.297,36.621,30.273,32.715
1643495797.963,40.527,30.273,34.180,29.785,38.086
1643495797.967,21.484,30.273,27.832,20.996,-3.418
1643495797.971,15.137,32.227,29.297,19.043,-30.273
1643495797.974,34.180,29.785,35.645,26.855,-52.246
1643495797.978,45.410,26.367,38.086,33.691,25.391
1643495797.982,22.949,26.367,28.809,29.297,62.500
1643495797.986,17.090,28.809,24.902,27.832,41.504
1643495797.990,33.691,29.297,29.785,31.738,20.508
1643495798.006,50.293,30.762,30.273,40.039,86.914
1643495798.010,41.016,31.738,28.809,38.574,58.105
1643495798.014,21.484,28.809,29.297,31.738,-2.930
1643495798.018,27.832,26.367,31.250,29.785,-17.578
1643495798.022,43.457,26.855,38.086,33.691,34.668
1643495798.026,39.551,29.297,32.715,36.133,82.031
1643495798.030,25.879,28.320,29.785,30.273,40.039
1643495798.033,23.438,28.320,35.156,33.203,0.488
1643495798.037,38.574,27.832,36.621,38.086,-0.977
1643495798.041,43.945,25.879,35.156,33.691,80.078
1643495798.045,26.855,26.855,29.785,29.785,48.340
1643495798.049,18.066,25.391,29.297,28.809,22.949
1643495798.052,32.715,25.391,29.785,34.180,20.508
1643495798.056,46.875,26.367,27.832,33.691,24.902
1643495798.060,30.762,24.414,26.367,26.367,81.543
1643495798.064,16.602,26.367,24.902,25.391,13.672
1643495798.068,32.715,30.762,26.367,29.297,2.930
1643495798.072,52.734,29.297,26.855,33.691,76.172
1643495798.076,41.016,27.344,23.438,29.297,23.438
1643495798.079,23.438,30.273,24.414,27.344,-17.090
1643495798.083,29.785,30.273,26.367,27.832,52.734
1643495798.087,50.781,30.273,24.902,32.227,106.934
1643495798.091,47.852,29.785,26.367,31.738,53.711
1643495798.095,27.832,26.855,25.391,25.879,12.207
1643495798.096,24.902,27.344,26.367,30.762,0.000
1643495798.100,38.086,30.762,30.273,38.086,-1.953
1643495798.104,51.758,33.203,29.297,39.062,48.340
1643495798.108,33.203,31.250,27.832,32.227,36.133
1643495798.112,23.438,31.250,24.414,34.668,-23.926
1643495798.116,39.551,31.738,24.902,37.598,-23.926
1643495798.120,50.293,29.785,28.809,39.551,34.180
1643495798.123,32.227,28.809,26.367,36.133,23.926
1643495798.127,15.625,28.809,21.973,26.855,-51.758
1643495798.131,22.949,25.391,31.738,25.391,-25.879
1643495798.135,37.109,25.391,37.598,30.762,35.645
1643495798.139,29.785,29.785,26.367,34.668,45.898
1643495798.141,9.277,28.809,20.508,25.879,18.066
1643495798.145,12.207,26.367,26.855,20.020,-21.973
1643495798.149,32.227,24.902,32.227,24.902,2.930
1643495798.153,34.180,25.391,28.809,25.391,49.316
1643495798.157,13.672,25.879,22.461,18.555,-6.348
1643495798.161,8.301,25.391,22.949,19.531,-38.574
1643495798.165,23.926,21.484,29.297,19.043,48.828
1643495798.168,40.527,21.484,26.855,24.414,105.957
1643495798.172,31.250,24.414,23.926,29.297,57.617
1643495798.176,17.578,24.902,31.250,23.438,5.371
1643495798.180,31.250,28.320,33.691,24.902,-5.371
1643495798.184,40.039,26.367,33.203,25.879,40.039
1643495798.187,19.531,23.926,28.320,20.508,26.367
1643495798.191,3.906,25.391,23.926,18.066,-31.250
1643495798.195,8.301,20.508,24.414,18.066,-20.996
1643495798.199,26.855,19.043,24.902,22.461,42.969
1643495798.203,31.738,24.414,24.414,25.391,52.246
1643495798.207,14.648,21.484,20.996,19.531,26.367
1643495798.211,13.672,18.555,26.367,17.578,-27.832
1643495798.214,38.086,20.996,34.668,30.762,9.766
1643495798.218,43.457,23.438,33.203,31.250,74.707
1643495798.222,21.484,25.879,29.785,25.879,44.434
1643495798.226,15.625,25.391,29.785,38.086,20.996
1643495798.230,32.227,24.902,35.645,42.480,37.598
1643495798.231,43.945,25.391,38.086,34.668,93.750
1643495798.235,27.344,28.320,31.250,29.297,65.918
1643495798.239,13.672,27.832,26.855,30.273,15.137
1643495798.243,32.715,27.344,32.715,30.762,36.621
1643495798.247,52.246,29.297,34.180,24.902,68.848
1643495798.251,38.574,32.227,28.320,24.902,60.547
1643495798.255,21.973,32.227,27.344,28.809,-11.719
1643495798.258,26.367,30.273,30.762,29.785,-10.254
1643495798.262,41.992,30.273,35.645,30.762,64.941
1643495798.266,42.480,30.273,29.785,33.691,34.180
1643495798.270,24.414,30.273,24.414,30.762,2.930
1643495798.274,21.973,30.762,30.273,28.809,-16.602
1643495798.276,37.598,31.738,39.062,29.785,43.457
1643495798.280,42.480,29.297,33.203,29.297,104.492
1643495798.284,26.367,28.320,25.391,24.902,75.195
1643495798.288,13.672,28.320,25.879,17.578,43.945
1643495798.292,26.855,26.855,23.926,16.113,61.523
1643495798.296,43.945,26.855,27.344,24.902,81.543
1643495798.300,24.902,30.762,23.438,22.949,19.531
1643495798.303,4.395,32.227,20.996,11.719,0.000
1643495798.307,19.043,30.762,31.738,19.531,-9.277
1643495798.311,42.480,29.785,34.668,31.738,32.715
1643495798.315,33.203,30.762,29.297,33.203,63.477
1643495798.319,18.555,33.203,24.902,29.297,5.859
1643495798.321,20.996,28.809,24.902,24.902,-3.418
1643495798.325,38.574,25.391,29.297,27.832,15.137
1643495798.329,43.457,26.367,29.297,41.504,59.570
1643495798.333,20.020,26.367,27.832,39.551,35.156
1643495798.337,16.113,26.367,28.809,26.367,15.625
1643495798.341,38.574,24.902,27.832,28.320,58.594
1643495798.345,47.363,25.391,30.762,24.902,50.781
1643495798.348,28.809,26.855,32.227,17.090,27.344
1643495798.352,18.555,24.414,25.879,24.902,-7.812
1643495798.356,32.227,22.949,27.344,30.762,33.203
1643495798.360,52.246,27.344,31.250,40.039,100.586
1643495798.364,41.992,29.785,27.344,42.480,71.777
1643495798.381,25.391,26.367,25.879,38.086,-5.859
1643495798.385,35.645,25.879,30.762,40.039,-29.297
1643495798.389,52.246,27.832,36.133,38.086,36.133
1643495798.393,42.969,29.297,32.715,38.086,43.457
1643495798.397,15.625,28.809,29.785,33.691,-3.418
1643495798.401,13.184,27.832,31.250,27.344,15.625
1643495798.405,31.738,29.785,33.203,23.926,62.500
1643495798.408,30.273,30.273,31.250,22.461,82.520
1643495798.412,7.324,25.879,26.367,20.020,24.902
1643495798.416,1.953,22.461,20.508,21.484,-46.387
1643495798.420,22.461,25.879,24.414,28.320,-9.766
1643495798.424,32.715,26.855,30.273,31.250,124.023
1643495798.426,19.043,25.391,23.926,30.273,57.129
1643495798.430,9.766,23.926,23.438,23.926,-42.480
1643495798.434,24.902,26.367,24.414,21.484,6.348
1643495798.438,44.434,29.297,25.391,30.762,85.938
1643495798.442,29.785,28.320,19.531,28.320,68.848
1643495798.446,10.742,26.855,18.066,21.484,3.906
1643495798.450,17.578,25.391,24.414,24.414,33.203
1643495798.453,37.598,24.902,30.273,33.203,104.004
1643495798.457,30.273,23.438,25.879,28.809,88.867
1643495798.461,7.812,23.438,22.949,20.996,-29.297
1643495798.465,10.742,25.391,29.297,27.344,-9.277
1643495798.469,30.762,24.414,30.762,29.297,65.430
1643495798.471,31.250,23.438,31.738,26.367,79.590
1643495798.475,10.254,24.414,28.809,21.973,90.332
1643495798.479,3.418,27.344,26.855,16.602,73.730
1643495798.483,14.160,24.414,31.738,17.578,28.320
1643495798.487,25.391,21.484,36.621,24.414,81.055
1643495798.491,7.324,21.973,32.227,27.344,75.684
1643495798.495,-7.324,20.508,34.180,23.926,14.648
1643495798.498,10.254,22.949,42.969,25.391,15.625
1643495798.502,31.738,23.438,38.086,23.926,38.574
1643495798.506,31.738,22.949,28.320,23.438,46.875
1643495798.510,22.949,23.438,29.297,29.297,-6.348
1643495798.514,31.250,21.484,31.250,35.645,-11.230
1643495798.517,55.176,22.461,33.203,47.363,62.012
1643495798.521,54.199,22.461,34.180,46.387,86.914
1643495798.525,34.668,22.949,31.738,46.387,35.156
1643495798.529,32.715,22.949,30.762,47.852,-3.418
1643495798.533,48.340,23.926,33.203,48.828,29.297
1643495798.537,54.688,26.367,29.785,47.363,93.750
1643495798.541,35.156,26.855,24.902,39.062,36.133
1643495798.544,23.926,29.785,27.832,35.156,-20.508
1643495798.548,30.762,28.809,29.785,26.367,12.695
1643495798.552,38.574,27.344,32.715,20.996,68.359
1643495798.556,20.996,29.297,26.855,18.066,65.430
1643495798.560,-0.488,30.762,20.996,10.742,30.762
1643495798.561,11.230,34.180,28.320,15.625,18.066
1643495798.565,30.762,34.180,37.598,24.902,51.270
1643495798.569,18.066,32.227,32.227,22.461,42.969
1643495798.573,-9.766,37.109,30.762,6.348,-10.254
1643495798.577,-13.672,40.039,36.133,-3.906,-51.758
1643495798.581,-0.977,39.551,40.527,-8.301,-1.953
1643495798.585,-10.742,36.621,42.480,-17.578,70.312
1643495798.588,-42.969,33.691,30.273,-37.598,33.203
1643495798.592,-46.387,32.715,32.715,-39.551,-46.387
1643495798.596,-29.297,34.668,47.363,-22.949,-36.133
1643495798.600,-31.738,37.109,51.270,-27.832,63.477
1643495798.604,-62.988,39.551,52.734,-42.480,55.664
1643495798.606,-86.914,38.574,59.570,-46.875,5.859
1643495798.610,-69.336,41.992,63.965,-37.109,34.668
1643495798.614,-45.410,39.551,62.988,-30.273,63.965
1643495798.618,-49.316,36.133,58.105,-27.344,31.738
1643495798.622,-61.523,39.062,58.105,-29.297,-18.555
1643495798.626,-54.199,40.527,63.477,-35.156,-1.953
1643495798.630,-23.438,41.504,62.500,-25.391,45.898
1643495798.633,-24.414,43.457,50.781,-38.086,43.457
1643495798.637,-42.480,43.457,45.898,-58.105,36.621
1643495798.641,-32.715,40.039,47.852,-52.734,-12.695
1643495798.645,-11.719,39.062,47.363,-45.898,7.324
1643495798.649,-1.465,36.133,43.457,-35.156,62.988
1643495798.653,-9.277,29.785,38.574,-20.508,42.969
1643495798.657,-10.254,30.273,31.738,-6.836,17.090
1643495798.661,10.742,29.297,32.227,4.395,24.902
1643495798.665,30.762,23.438,35.645,14.160,71.777
1643495798.669,20.020,21.973,25.391,21.484,58.594
1643495798.673,20.996,20.996,20.508,31.250,18.555
1643495798.677,48.340,19.531,23.438,48.828,-15.625
1643495798.680,65.918,17.090,24.902,52.246,63.965
1643495798.684,62.500,16.602,17.578,53.223,113.770
1643495798.688,58.105,16.113,9.277,65.918,16.113
1643495798.692,64.453,16.113,13.184,72.266,6.348
1643495798.696,83.496,16.602,17.090,80.078,59.570
1643495798.711,83.496,15.625,11.719,85.938,73.730
1643495798.715,61.035,17.090,5.371,87.891,-15.625
1643495798.719,55.176,15.137,10.742,85.449,-20.996
1643495798.723,69.824,16.113,13.672,80.566,52.734
1643495798.727,70.312,17.090,11.230,81.543,95.215
1643495798.731,48.340,16.113,6.348,69.336,51.758
1643495798.735,39.551,20.508,3.906,58.594,32.715
1643495798.738,54.199,22.461,12.207,57.617,55.664
1643495798.742,65.918,22.949,14.160,56.152,50.293
1643495798.746,59.570,22.461,6.836,52.734,17.578
1643495798.750,56.152,23.926,4.883,53.223,-34.180
1643495798.754,66.406,25.879,11.719,57.129,-24.902
1643495798.756,83.984,25.391,18.555,65.430,52.734
1643495798.760,77.637,26.367,16.602,66.406,59.082
1643495798.764,61.523,26.367,13.672,58.594,-2.930
1643495798.768,67.383,23.438,15.625,58.105,2.930
1643495798.772,83.496,20.020,21.973,64.941,53.223
1643495798.776,80.566,20.996,20.020,64.941,73.730
1643495798.780,58.105,22.949,18.555,58.594,26.855
1643495798.783,51.270,17.578,28.320,58.594,-11.719
1643495798.787,69.336,16.113,36.621,64.941,50.293
1643495798.791,77.148,21.484,30.762,69.824,61.035
1643495798.795,55.664,18.066,30.762,61.523,-8.301
1643495798.799,43.945,15.137,34.180,56.641,-29.785
1643495798.801,59.082,20.508,28.809,63.477,28.809
1643495798.805,72.754,20.020,28.809,71.777,76.172
1643495798.809,57.129,19.043,26.367,67.383,65.430
1643495798.813,44.922,21.484,20.508,66.406,36.133
1643495798.817,54.199,22.949,22.949,67.383,20.020
1643495798.821,70.312,24.902,25.879,56.152,43.457
1643495798.825,63.965,24.902,23.926,44.922,26.367
1643495798.828,42.480,22.949,21.973,37.109,-1.953
1643495798.832,37.598,23.926,19.043,34.668,-8.301
1643495798.836,53.223,25.391,21.973,28.809,29.785
1643495798.840,51.758,25.879,24.414,25.391,84.473
1643495798.844,26.367,25.879,17.578,24.414,49.805
1643495798.846,22.461,27.832,16.602,22.949,18.555
1643495798.850,35.156,28.809,24.414,23.438,38.574
1643495798.854,40.039,27.832,26.855,30.273,74.707
1643495798.858,24.414,29.297,22.461,30.762,64.941
1643495798.862,9.766,30.273,21.484,21.973,13.672
1643495798.866,20.508,29.297,25.391,23.926,0.977
1643495798.870,33.203,28.320,29.297,23.926,69.824
1643495798.873,19.043,28.320,27.344,20.508,109.375
1643495798.877,5.859,29.297,20.508,19.531,2.930
1643495798.881,12.695,30.273,25.879,10.254,7.812
1643495798.885,31.250,28.809,31.738,17.578,92.285
1643495798.889,29.297,32.715,22.461,24.414,97.168
1643495798.892,7.324,34.180,19.043,13.184,-1.953
1643495798.896,10.742,28.320,21.484,13.672,-58.105
1643495798.900,33.691,31.738,22.461,19.531,35.645
1643495798.904,32.715,34.668,23.926,20.508,53.711
1643495798.908,11.230,28.809,18.555,16.113,-3.906
1643495798.912,4.883,25.391,15.137,9.766,-40.039
1643495798.916,20.996,28.809,20.020,10.254,-13.184
1643495798.919,38.086,33.203,17.578,13.672,56.641
1643495798.923,19.531,30.762,17.090,12.695,54.688
1643495798.927,1.465,28.809,24.414,11.719,-11.230
1643495798.931,12.207,27.344,25.391,13.672,-9.766
1643495798.935,32.715,26.367,23.926,22.461,63.965
1643495798.937,32.715,27.344,21.484,29.297,55.664
1643495798.941,17.578,24.414,21.973,25.391,34.180
1643495798.945,16.602,26.367,23.438,20.996,15.625
1643495798.949,31.738,27.344,27.832,21.973,-7.812
1643495798.953,28.320,23.438,27.344,24.902,58.105
1643495798.957,12.207,25.391,20.020,19.043,46.387
1643495798.961,13.184,29.297,21.484,13.672,-20.508
1643495798.964,27.832,26.855,29.297,17.090,-10.742
1643495798.968,35.156,23.438,25.879,22.949,40.039
1643495798.972,24.414,22.949,24.902,30.762,53.223
1643495798.976,17.090,23.926,26.367,24.902,33.691
1643495798.980,30.273,25.391,30.762,25.391,18.555
1643495798.981,46.875,28.320,35.156,39.062,38.574
1643495798.985,34.180,28.809,31.250,37.598,41.504
1643495798.989,15.137,25.879,29.785,27.832,15.137
1643495798.993,23.926,24.414,31.250,30.273,-20.508
1643495798.997,42.969,24.414,34.180,36.133,45.410
1643495799.001,29.297,24.902,31.250,30.762,52.246
1643495799.005,8.301,25.879,23.926,23.926,-17.578
1643495799.008,13.184,26.855,23.926,23.438,7.324
1643495799.012,31.738,27.344,30.273,31.250,62.500
1643495799.016,32.227,26.855,28.320,30.762,35.156
1643495799.020,13.672,26.367,23.438,22.949,-2.930
1643495799.024,12.207,26.367,18.555,19.531,17.578
1643495799.026,28.809,26.367,22.949,25.391,22.949
1643495799.030,33.203,27.832,27.832,28.809,83.496
1643495799.034,19.043,24.902,21.973,32.227,59.082
1643495799.038,12.695,22.949,21.484,29.297,10.254
1643495799.042,23.438,25.879,25.391,25.879,17.578
1643495799.046,36.133,25.391,27.832,29.297,81.055
1643495799.050,23.438,24.902,23.438,20.020,102.051
1643495799.053,14.648,25.879,26.367,15.137,3.906
1643495799.057,24.414,25.879,32.715,18.066,-7.324
1643495799.061,37.109,26.855,29.297,23.438,60.059
1643495799.065,30.762,28.809,22.461,24.414,48.340
1643495799.069,11.719,29.785,21.973,15.137,18.066
1643495799.071,15.137,26.855,25.391,14.648,26.367
1643495799.075,38.086,26.367,24.902,22.949,56.152
1643495799.079,38.086,27.344,21.973,25.879,81.055
1643495799.083,17.578,28.809,21.973,20.020,64.941
1643495799.087,12.695,27.832,21.973,17.578,39.062
1643495799.091,23.926,24.902,23.438,19.531,37.109
1643495799.095,31.738,25.879,25.879,17.578,28.320
1643495799.098,19.531,30.762,26.367,20.508,-5.371
1643495799.102,8.789,27.344,26.367,22.461,-12.695
1643495799.106,20.996,22.949,28.320,27.344,37.598
1643495799.110,41.504,26.855,27.832,34.180,77.148
1643495799.114,25.879,28.809,24.414,30.762,82.031
