timestamps,TP9,AF7,AF8,TP10,Right AUX
1642356608.224,24.902,31.250,26.367,25.879,28.320
1642356608.228,31.250,28.809,25.879,24.414,-16.113
1642356608.232,31.250,30.762,26.367,22.461,-25.879
1642356608.236,30.762,32.715,29.785,22.949,32.715
1642356608.240,34.668,30.273,31.738,22.949,93.262
1642356608.244,32.715,30.273,27.832,20.020,68.848
1642356608.248,26.367,30.273,25.391,21.973,15.625
1642356608.251,28.320,35.156,25.879,22.461,7.324
1642356608.255,32.715,38.086,24.414,20.996,5.859
1642356608.259,33.203,35.645,24.414,23.438,-0.488
1642356608.263,33.203,35.645,24.414,28.320,23.438
1642356608.267,28.320,34.180,25.879,25.391,46.875
1642356608.270,26.855,31.738,30.273,32.715,13.184
1642356608.274,25.879,32.227,32.715,32.715,1.465
1642356608.278,25.879,29.785,29.785,29.785,54.199
1642356608.281,22.949,31.250,23.926,25.879,63.477
1642356608.285,20.020,30.762,27.344,25.879,33.203
1642356608.289,22.461,27.832,29.297,30.273,31.738
1642356608.293,21.484,31.250,28.809,24.902,33.203
1642356608.297,23.926,33.691,32.715,20.996,3.418
1642356608.299,30.762,32.715,31.738,24.902,-20.508
1642356608.303,31.738,33.203,32.715,24.902,23.926
1642356608.307,27.344,38.574,33.203,21.484,42.480
1642356608.311,25.391,36.621,29.785,24.414,15.137
1642356608.315,26.367,31.738,32.227,31.250,15.625
1642356608.319,21.484,33.203,31.250,26.367,45.898
1642356608.323,18.066,32.227,29.297,17.578,41.992
1642356608.326,23.926,31.250,30.273,23.438,10.742
1642356608.330,23.438,32.227,28.320,26.855,4.395
1642356608.334,23.926,32.715,29.785,20.508,29.297
1642356608.338,26.855,33.203,29.785,19.531,63.477
1642356608.342,29.785,33.691,28.809,21.484,62.988
1642356608.359,34.180,36.133,28.809,20.020,12.207
1642356608.363,29.785,35.156,28.320,19.043,62.500
1642356608.367,24.414,30.273,29.297,20.996,64.941
1642356608.371,25.391,29.297,24.902,19.531,2.441
1642356608.375,22.461,31.738,25.391,15.137,-8.789
1642356608.379,22.949,35.156,24.902,15.625,-24.902
1642356608.383,30.273,35.156,22.949,20.020,-4.883
1642356608.386,33.203,33.691,26.855,21.484,11.230
1642356608.390,25.879,35.156,29.297,19.043,-19.531
1642356608.394,23.438,35.156,26.855,20.508,22.949
1642356608.398,26.855,32.715,26.855,23.926,99.121
1642356608.402,22.461,31.250,27.344,25.879,70.801
1642356608.404,19.531,31.250,25.391,22.949,11.230
1642356608.408,18.555,33.691,27.344,20.996,20.508
1642356608.412,18.555,34.180,27.344,20.508,26.367
1642356608.416,17.578,31.738,25.879,14.160,-5.371
1642356608.420,17.090,32.715,27.832,9.766,12.207
1642356608.424,16.602,32.227,33.203,15.137,37.598
1642356608.428,19.531,32.715,33.691,23.926,27.832
1642356608.431,20.508,35.645,29.785,22.949,33.691
1642356608.435,12.207,34.180,35.156,11.230,48.340
1642356608.439,9.277,34.180,31.738,4.395,5.371
1642356608.443,10.742,35.156,31.250,7.324,-15.625
1642356608.447,10.254,38.574,41.504,8.301,24.414
1642356608.449,23.438,48.828,51.270,21.484,25.879
1642356608.453,23.438,46.875,49.316,22.461,4.395
1642356608.457,4.395,33.691,37.109,10.742,3.418
1642356608.461,5.859,37.598,36.133,12.207,1.953
1642356608.465,9.277,52.734,50.293,11.230,48.828
1642356608.469,4.883,54.688,56.641,2.930,51.758
1642356608.473,-0.977,56.641,57.129,0.000,6.836
1642356608.476,-25.391,59.082,70.312,-13.184,20.996
1642356608.480,-38.574,48.828,73.730,-32.227,40.527
1642356608.484,-31.738,54.199,69.824,-38.574,17.090
1642356608.488,-34.180,63.965,75.195,-43.945,-11.230
1642356608.492,-49.805,68.359,87.402,-53.223,33.203
1642356608.495,-72.266,76.660,99.609,-73.730,70.801
1642356608.499,-89.844,82.520,104.492,-93.262,14.160
1642356608.503,-94.238,87.402,104.980,-104.492,11.719
1642356608.507,-86.914,86.914,104.004,-103.027,45.410
1642356608.511,-88.867,77.148,105.469,-92.773,19.043
1642356608.515,-85.449,76.660,98.633,-82.031,48.828
1642356608.519,-54.199,71.777,85.938,-62.988,41.504
1642356608.522,-36.133,59.082,77.148,-42.969,3.906
1642356608.526,-35.645,53.223,65.430,-33.691,-0.488
1642356608.530,-17.578,42.969,56.152,-19.531,40.039
1642356608.534,1.465,34.668,47.852,0.488,46.875
1642356608.538,14.160,33.691,36.133,14.160,48.340
1642356608.555,25.879,27.344,26.367,24.902,101.074
1642356608.559,39.551,21.973,19.043,36.133,38.086
1642356608.563,50.781,20.996,13.184,46.875,-16.113
1642356608.567,50.293,19.043,8.301,49.316,-0.488
1642356608.571,48.340,14.648,8.789,52.246,4.883
1642356608.575,51.758,11.719,5.859,57.617,32.227
1642356608.579,59.082,14.160,0.977,58.105,40.039
1642356608.582,61.035,6.836,6.836,53.711,-9.277
1642356608.586,57.129,2.441,4.883,52.734,18.066
1642356608.590,61.523,4.395,-3.418,62.500,60.059
1642356608.594,59.570,-1.953,-0.488,60.059,21.484
1642356608.598,52.734,0.488,-1.953,52.734,26.855
1642356608.600,61.523,8.301,-5.371,67.383,14.160
1642356608.604,70.312,7.324,-1.465,74.219,24.902
1642356608.608,64.941,9.277,0.977,67.383,23.926
1642356608.612,67.383,10.254,-2.441,65.918,9.766
1642356608.616,76.660,4.883,-0.977,70.312,57.129
1642356608.620,71.777,7.324,1.465,72.266,55.664
1642356608.624,68.359,11.719,1.465,66.406,99.609
1642356608.627,68.848,10.254,0.977,68.359,58.594
1642356608.631,68.848,6.348,0.488,77.637,41.504
1642356608.635,71.777,6.836,-0.977,74.219,88.379
1642356608.639,65.430,6.836,0.977,63.965,40.527
1642356608.643,56.641,6.836,5.859,60.547,43.945
1642356608.630,62.012,9.277,3.418,62.988,30.762
1642356608.634,63.965,11.719,5.859,62.012,39.551
1642356608.638,61.523,16.602,8.789,59.082,68.359
1642356608.642,61.523,19.043,3.906,58.594,60.059
1642356608.646,61.523,17.090,5.371,59.570,57.617
1642356608.650,57.617,15.137,9.277,56.641,45.898
1642356608.654,59.082,18.555,10.254,57.129,43.945
1642356608.657,60.059,19.531,12.695,54.199,38.086
1642356608.661,51.758,18.066,12.207,53.223,-24.902
1642356608.665,51.270,22.461,13.184,55.176,0.000
1642356608.669,48.340,25.391,17.090,49.805,42.480
1642356608.673,46.875,25.391,17.090,51.758,23.438
1642356608.674,49.316,24.902,17.578,49.316,70.801
1642356608.678,49.805,22.949,18.555,45.410,68.848
1642356608.682,50.293,21.484,18.066,44.922,-11.230
1642356608.686,42.969,21.484,18.555,43.945,0.977
1642356608.690,39.551,23.438,19.531,41.504,7.812
1642356608.694,36.621,26.367,19.043,34.180,21.973
1642356608.698,35.645,25.879,20.020,32.227,3.418
1642356608.701,37.598,26.367,19.043,34.180,16.602
1642356608.705,34.180,28.809,19.531,32.715,90.332
1642356608.709,35.156,28.320,20.020,32.227,84.473
1642356608.713,31.250,22.949,20.508,33.203,46.387
1642356608.717,26.367,23.926,22.949,35.645,14.648
1642356608.734,27.344,24.902,24.414,32.227,47.852
1642356608.738,22.949,21.484,26.367,29.297,1.465
1642356608.742,15.625,23.926,25.879,21.484,4.395
1642356608.746,14.160,24.414,21.973,17.090,81.543
1642356608.750,20.996,24.902,20.996,23.438,33.691
1642356608.754,20.996,27.344,25.391,19.531,-6.348
1642356608.758,20.508,27.344,24.414,15.625,-13.184
1642356608.761,19.531,26.855,25.879,16.602,-39.551
1642356608.765,23.926,28.320,27.344,22.461,-13.672
1642356608.769,31.738,28.320,27.344,24.902,31.250
1642356608.773,22.461,25.391,32.227,16.602,-25.391
1642356608.777,17.090,25.879,31.250,17.090,-18.555
1642356608.779,20.996,31.738,26.855,25.391,23.438
1642356608.783,19.043,34.180,29.297,24.414,15.625
1642356608.787,24.902,33.691,32.227,27.832,26.367
1642356608.791,27.344,33.203,33.203,28.320,2.930
1642356608.795,23.438,28.809,33.691,26.367,51.270
1642356608.799,24.902,26.855,29.785,29.297,101.562
1642356608.803,27.344,29.297,30.273,27.344,30.273
1642356608.806,25.879,30.273,29.785,24.414,2.441
1642356608.810,21.973,27.832,27.344,20.508,27.832
1642356608.814,11.719,26.367,29.785,15.625,45.410
1642356608.818,6.348,27.344,30.273,11.719,54.688
1642356608.822,13.184,28.320,29.297,13.672,19.043
1642356608.824,19.531,31.250,31.250,20.996,-13.184
1642356608.828,18.555,31.250,34.180,23.438,0.488
1642356608.832,16.602,26.367,30.273,21.484,48.828
1642356608.836,19.531,27.832,26.367,17.578,15.137
1642356608.840,25.879,30.762,26.367,17.578,4.395
1642356608.844,27.344,32.715,27.832,23.438,40.039
1642356608.848,30.273,30.762,31.738,23.926,34.668
1642356608.851,28.320,27.344,32.715,23.438,41.504
1642356608.855,24.414,28.809,33.203,25.391,1.465
1642356608.859,23.926,33.691,36.621,18.066,-7.812
1642356608.863,20.020,30.273,39.062,21.973,39.551
1642356608.867,15.625,26.855,37.109,26.855,26.367
1642356608.884,17.578,27.832,37.109,20.020,1.953
1642356608.888,14.160,29.297,33.691,20.020,8.789
1642356608.892,13.184,28.809,29.297,23.438,28.320
1642356608.896,14.648,25.879,30.273,19.043,59.082
1642356608.900,13.184,25.879,31.738,17.090,-6.836
1642356608.904,14.648,31.250,29.297,21.973,-36.621
1642356608.908,17.090,31.250,26.367,21.484,30.762
1642356608.911,18.555,29.297,28.320,19.043,18.066
1642356608.915,19.531,34.668,30.273,17.578,26.367
1642356608.919,22.949,32.227,30.273,20.020,28.320
1642356608.923,25.879,28.320,28.320,22.949,19.043
1642356608.927,24.414,29.297,31.250,20.508,37.109
1642356608.915,19.531,27.832,33.691,19.531,24.902
1642356608.919,21.484,28.320,31.738,23.438,39.062
1642356608.923,22.949,28.809,33.203,25.391,15.137
1642356608.927,29.297,31.738,32.227,27.344,15.625
1642356608.931,32.227,32.227,32.227,28.809,100.098
1642356608.935,30.273,32.715,31.250,31.250,72.266
1642356608.939,32.715,34.668,32.227,31.250,-0.488
1642356608.942,29.297,31.250,33.203,26.855,47.363
1642356608.946,27.832,31.250,28.809,23.926,62.500
1642356608.950,27.344,31.250,29.297,21.484,15.625
1642356608.954,26.367,32.715,26.855,25.879,-6.348
1642356608.958,18.066,32.227,29.785,23.926,39.062
1642356608.959,13.184,27.832,34.180,17.090,38.574
1642356608.963,19.043,30.273,28.320,17.090,15.137
1642356608.967,20.996,34.180,28.809,20.508,43.457
1642356608.971,20.508,31.738,28.320,20.020,52.246
1642356608.975,22.949,27.832,25.879,20.020,41.016
1642356608.979,24.414,27.344,25.879,17.578,16.602
1642356608.983,21.484,28.320,26.855,16.602,-5.859
1642356608.986,26.855,32.227,27.832,21.973,11.719
1642356608.990,21.484,31.738,28.809,23.926,4.883
1642356608.994,16.602,28.809,30.762,24.902,18.066
1642356608.998,21.973,31.738,27.832,20.020,68.359
1642356609.002,20.508,31.250,27.832,17.090,20.020
1642356609.004,24.902,28.809,31.738,26.855,10.742
1642356609.008,25.391,30.273,31.738,28.809,46.387
1642356609.012,27.832,29.785,32.715,29.785,6.348
1642356609.016,40.039,28.809,34.668,30.273,9.766
1642356609.020,36.621,29.297,35.156,32.227,70.801
1642356609.024,27.344,24.414,35.156,33.691,15.137
1642356609.028,32.227,23.438,33.203,39.062,2.930
1642356609.031,31.738,26.367,34.668,41.504,1.953
1642356609.035,31.250,27.344,33.691,33.691,17.090
1642356609.039,31.738,27.832,29.785,28.809,83.984
1642356609.043,23.438,27.832,29.785,17.090,3.906
1642356609.047,24.414,25.391,30.762,13.184,-13.672
1642356609.050,33.203,22.461,31.738,17.090,35.156
1642356609.054,20.996,30.762,26.855,14.648,8.301
1642356609.058,9.766,34.668,22.949,9.766,-1.953
1642356609.062,15.137,29.785,28.809,12.695,36.621
1642356609.066,20.508,31.738,31.738,20.020,45.898
1642356609.070,20.508,31.738,30.762,20.020,67.871
1642356609.074,17.578,31.738,30.762,14.648,66.406
1642356609.077,20.508,32.715,28.320,16.602,5.371
1642356609.081,22.949,31.738,27.832,20.508,40.527
1642356609.085,22.461,30.762,26.855,17.090,20.020
1642356609.089,25.391,30.273,25.391,21.973,7.812
1642356609.093,21.484,26.367,26.855,18.066,17.578
1642356609.110,22.949,28.809,27.832,12.207,-39.551
1642356609.114,26.367,30.273,27.344,21.973,31.738
1642356609.118,26.855,30.273,29.297,27.344,96.680
1642356609.122,32.715,36.133,28.809,23.438,56.152
1642356609.126,33.691,33.691,26.855,26.367,49.316
1642356609.130,33.203,33.691,28.809,28.809,24.414
1642356609.134,32.227,32.715,35.156,25.879,17.578
1642356609.137,34.180,33.203,33.691,31.738,49.316
1642356609.141,34.180,34.668,29.297,26.367,16.602
1642356609.145,30.762,29.785,28.809,23.438,15.137
1642356609.149,28.320,30.762,25.879,28.320,82.520
1642356609.153,21.484,35.645,30.273,24.414,78.613
1642356609.154,18.066,35.156,28.809,17.578,27.832
1642356609.158,19.043,32.227,25.391,17.578,22.949
1642356609.162,17.090,31.250,31.250,19.531,89.355
1642356609.166,17.090,32.715,31.738,24.414,89.844
1642356609.170,20.996,37.598,27.832,23.926,23.926
1642356609.174,31.250,34.668,30.273,24.414,4.395
1642356609.178,28.320,29.785,33.203,28.809,3.418
1642356609.181,17.578,31.250,29.785,27.344,49.316
1642356609.185,14.160,31.250,29.785,20.508,50.293
1642356609.189,10.742,31.738,32.715,13.184,5.371
1642356609.193,6.348,27.832,32.227,12.695,10.742
1642356609.197,6.348,25.879,30.762,12.695,68.359
1642356609.199,9.766,27.344,29.297,14.648,74.219
1642356609.203,13.672,26.855,28.809,19.043,50.293
1642356609.207,18.066,26.855,31.738,22.461,38.574
1642356609.211,16.113,29.297,31.738,26.367,37.598
1642356609.215,20.508,29.297,30.273,32.715,18.555
1642356609.219,23.926,29.785,30.273,34.668,-28.809
1642356609.223,32.227,30.762,29.785,39.551,-2.930
1642356609.226,41.016,29.297,32.227,47.363,35.645
1642356609.230,34.668,35.645,30.273,45.410,17.090
1642356609.234,35.645,33.691,25.391,41.504,35.156
1642356609.238,36.621,27.832,26.367,35.645,45.898
1642356609.242,30.762,27.832,30.273,27.832,23.926
1642356609.244,26.367,29.785,31.738,28.320,13.184
1642356609.248,23.438,31.250,30.762,26.367,41.504
1642356609.252,20.020,28.809,30.762,19.043,34.668
1642356609.256,20.996,27.344,31.250,21.484,-4.395
1642356609.260,21.973,28.809,32.715,25.879,-12.695
1642356609.264,21.973,35.156,29.297,24.414,13.184
1642356609.268,20.996,34.668,26.855,22.461,57.617
1642356609.271,19.531,33.203,27.344,17.090,11.230
1642356609.275,18.555,35.156,22.949,10.742,-19.531
1642356609.279,14.160,32.227,24.414,3.418,3.906
1642356609.283,17.578,32.227,30.762,7.812,20.996
1642356609.287,24.414,35.645,32.227,16.113,17.090
1642356609.289,20.020,35.156,31.250,6.348,3.906
1642356609.293,16.602,34.668,33.203,0.488,35.645
1642356609.297,22.461,37.109,35.156,10.254,85.449
1642356609.301,22.461,37.598,36.133,17.578,86.914
1642356609.305,18.555,36.621,34.668,22.461,24.902
1642356609.309,24.414,33.691,34.180,28.320,7.324
1642356609.313,26.855,30.762,34.668,28.809,73.730
1642356609.316,27.832,30.273,32.227,30.273,52.734
1642356609.320,30.273,33.691,29.785,29.297,-46.387
1642356609.324,30.762,36.133,30.273,29.785,-56.641
1642356609.328,42.480,34.180,31.738,41.016,20.996
1642356609.332,49.805,36.133,32.227,44.434,30.762
1642356609.350,45.898,35.645,35.156,39.062,44.434
1642356609.354,48.340,30.762,33.691,41.504,69.824
1642356609.358,42.969,26.855,29.297,32.715,55.664
1642356609.362,36.133,28.320,29.297,19.531,50.293
1642356609.366,37.598,32.227,32.227,18.555,33.203
1642356609.370,38.086,30.762,33.691,23.926,30.273
1642356609.374,31.250,30.762,33.203,22.949,34.668
1642356609.377,22.949,32.715,34.180,18.555,-10.254
1642356609.381,20.996,33.691,33.691,21.484,-1.953
1642356609.385,25.391,38.574,30.273,24.414,25.391
1642356609.389,21.484,35.156,29.785,20.020,37.109
1642356609.393,16.113,32.227,31.738,10.254,28.320
1642356609.394,22.461,29.297,31.738,7.812,35.156
1642356609.398,26.367,30.762,28.320,14.160,26.367
1642356609.402,20.508,37.598,27.344,12.695,56.152
1642356609.406,20.996,35.645,27.832,10.254,20.508
1642356609.410,24.414,33.691,29.785,14.160,-16.602
1642356609.414,15.625,35.156,30.273,9.277,-19.531
1642356609.418,9.766,34.668,29.785,10.254,-3.906
1642356609.421,14.648,31.738,31.250,16.113,51.758
1642356609.425,17.090,32.227,33.203,16.113,68.359
1642356609.429,14.648,35.156,35.645,20.996,44.434
1642356609.433,15.625,34.668,32.715,25.391,37.598
1642356609.437,20.020,34.180,31.250,29.297,55.664
1642356609.439,18.555,37.109,34.180,25.879,8.789
1642356609.443,16.602,38.086,31.738,20.508,44.434
1642356609.447,17.578,33.203,30.273,25.879,7.812
1642356609.451,14.160,34.668,34.180,27.344,6.348
1642356609.455,15.137,35.645,32.715,22.461,16.602
1642356609.459,20.508,30.273,32.715,19.043,28.320
1642356609.463,20.996,31.738,31.738,18.555,66.895
1642356609.466,17.578,35.156,29.785,22.461,62.500
1642356609.470,20.996,31.250,30.273,27.832,36.133
1642356609.474,16.113,28.320,30.273,23.438,9.766
1642356609.478,12.695,30.273,29.785,15.625,40.039
1642356609.482,19.531,35.645,28.320,19.531,27.344
1642356609.484,22.461,38.574,26.855,22.949,49.805
1642356609.488,21.973,37.598,26.855,20.996,38.086
1642356609.492,23.438,36.621,27.832,19.043,14.648
1642356609.496,22.949,33.691,26.367,20.508,10.254
1642356609.500,21.484,31.738,29.785,23.926,28.320
1642356609.504,18.066,31.738,33.203,16.602,51.758
1642356609.508,19.043,31.738,34.180,13.672,73.242
1642356609.511,20.508,30.762,32.227,13.672,75.684
1642356609.515,17.578,32.227,32.227,13.184,29.785
1642356609.519,23.926,35.156,32.227,19.043,12.207
1642356609.523,20.996,37.598,30.762,15.137,8.301
1642356609.527,20.508,33.691,30.762,17.090,41.504
1642356609.529,30.762,29.297,31.738,29.785,30.273
1642356609.533,23.438,28.809,33.691,28.320,28.809
1642356609.537,19.531,31.250,31.738,23.926,58.105
1642356609.541,25.879,34.180,29.785,23.926,37.109
1642356609.545,25.391,31.738,33.203,25.391,45.410
1642356609.549,22.461,32.715,32.715,24.902,35.645
1642356609.553,19.531,37.598,30.762,20.996,39.062
1642356609.556,24.902,34.668,28.809,22.949,52.734
1642356609.560,24.902,29.297,29.297,24.902,17.578
1642356609.564,21.484,30.762,29.785,22.461,42.480
1642356609.568,23.926,30.273,29.297,16.113,59.082
1642356609.572,20.508,30.762,33.203,10.254,11.230
1642356609.575,21.484,33.691,32.227,12.207,-11.719
1642356609.579,26.855,35.156,31.738,20.508,8.301
1642356609.583,28.809,34.180,34.180,26.367,4.395
1642356609.587,36.133,35.156,34.180,19.531,-64.941
1642356609.591,36.133,39.062,32.715,14.648,-13.672
1642356609.595,25.391,36.133,33.691,14.648,58.594
1642356609.599,23.926,30.273,35.645,15.137,60.547
1642356609.602,27.832,32.227,34.180,19.043,90.820
1642356609.606,22.461,32.715,35.645,16.602,21.973
1642356609.610,19.043,32.715,36.621,19.043,-56.152
1642356609.614,22.461,31.250,31.250,28.809,31.738
1642356609.618,23.438,36.133,30.762,32.227,82.031
1642356609.634,20.508,38.574,33.203,27.344,-4.883
1642356609.638,18.066,30.273,32.227,20.020,28.809
1642356609.642,19.043,27.832,33.691,20.996,49.805
1642356609.646,19.043,31.250,33.203,18.066,17.090
1642356609.650,19.043,31.250,29.785,17.578,20.508
1642356609.654,21.973,31.738,29.785,23.438,26.855
1642356609.658,20.996,34.668,32.227,24.902,29.297
1642356609.661,18.555,38.086,30.762,23.438,31.738
1642356609.665,18.555,36.133,32.715,20.020,-14.648
1642356609.669,25.391,35.645,33.691,23.926,5.859
1642356609.673,23.926,40.039,31.738,26.855,65.918
1642356609.677,16.602,40.039,31.250,20.508,34.180
1642356609.664,25.391,37.598,27.832,24.902,42.969
1642356609.668,23.438,35.645,26.367,20.996,55.664
1642356609.672,16.602,33.203,26.855,13.672,69.824
1642356609.676,20.020,32.715,28.320,16.113,63.965
1642356609.680,20.996,31.738,32.715,15.625,50.293
1642356609.684,19.043,28.809,31.738,14.160,2.930
1642356609.688,20.508,30.762,29.297,19.043,3.418
1642356609.691,22.461,33.203,29.785,20.508,44.434
1642356609.695,14.648,35.156,29.297,14.648,44.922
1642356609.699,13.184,37.109,28.809,16.113,47.852
1642356609.703,15.137,34.180,28.809,20.508,15.625
1642356609.707,15.625,28.320,31.250,23.438,32.715
1642356609.710,18.066,26.367,32.715,24.902,61.523
1642356609.714,17.578,30.273,34.180,23.438,39.551
1642356609.718,19.043,33.203,33.203,19.043,-15.625
1642356609.722,22.949,35.645,28.809,14.160,9.277
1642356609.726,26.855,35.645,30.273,18.066,72.754
1642356609.730,29.297,31.738,34.668,22.461,17.578
1642356609.734,27.832,31.738,34.180,14.648,-44.922
1642356609.737,29.785,35.645,31.738,18.555,23.926
1642356609.741,30.273,33.203,32.227,28.809,31.250
1642356609.745,26.855,29.297,32.227,24.414,33.203
1642356609.749,24.414,29.785,30.762,21.973,29.785
1642356609.753,21.484,30.762,30.273,24.414,33.203
1642356609.754,22.949,32.227,30.273,34.180,68.359
1642356609.758,22.949,34.180,28.809,27.832,27.832
1642356609.762,25.879,32.715,29.297,14.648,26.367
1642356609.766,30.273,32.715,29.785,24.414,-12.207
1642356609.770,24.902,37.598,25.879,28.320,-31.250
1642356609.774,26.367,35.645,28.809,24.902,18.555
1642356609.778,32.227,32.715,34.180,25.391,7.812
1642356609.781,28.809,32.715,32.715,22.949,51.758
1642356609.785,27.344,29.297,32.715,24.414,78.125
1642356609.789,23.438,26.367,37.598,21.484,58.594
1642356609.793,20.508,28.809,35.156,16.602,48.828
1642356609.797,26.855,34.180,33.203,20.996,9.766
1642356609.800,26.855,33.203,33.203,28.320,8.789
1642356609.804,15.625,28.809,32.715,24.902,36.621
1642356609.808,18.066,31.250,32.715,18.066,56.152
1642356609.812,25.391,38.086,27.344,18.555,51.270
1642356609.816,25.879,34.668,28.320,19.531,-0.488
1642356609.820,24.902,34.668,29.785,20.020,8.789
1642356609.824,21.973,35.156,30.273,19.531,38.574
1642356609.827,21.484,34.180,33.691,14.648,67.871
1642356609.831,21.484,36.133,33.691,12.695,6.836
1642356609.835,23.926,36.133,30.762,20.996,20.996
1642356609.839,25.879,33.691,29.785,25.879,61.523
1642356609.843,23.926,34.180,33.203,20.996,-5.859
1642356609.859,26.367,39.551,30.762,20.508,-41.016
1642356609.863,27.344,35.645,32.227,25.391,17.090
1642356609.867,28.809,34.180,32.715,27.832,67.871
1642356609.871,24.902,35.156,29.785,23.926,36.621
1642356609.875,26.855,30.273,32.715,23.926,24.414
1642356609.879,28.809,33.203,32.715,26.855,35.645
1642356609.883,25.391,34.180,34.180,26.367,-2.930
1642356609.886,20.996,34.180,38.086,21.973,15.625
1642356609.890,20.996,36.133,34.668,23.438,65.430
1642356609.894,20.020,32.227,33.203,23.438,41.016
1642356609.898,18.555,30.762,32.715,20.020,-16.602
1642356609.902,17.578,29.297,31.738,21.484,-4.395
1642356609.904,18.066,29.785,32.715,24.902,22.949
1642356609.908,21.973,32.715,28.809,23.438,9.277
1642356609.912,24.414,31.250,31.738,23.438,31.738
1642356609.916,27.832,32.227,32.715,28.809,60.059
1642356609.920,28.320,33.691,31.738,28.809,23.926
1642356609.924,29.297,32.715,34.180,25.879,1.953
1642356609.928,31.250,35.645,32.715,24.414,16.602
1642356609.931,30.273,31.738,29.297,25.391,-10.254
1642356609.935,27.832,29.297,28.809,22.949,24.902
1642356609.939,31.250,31.250,31.738,20.020,34.668
1642356609.943,32.715,29.785,30.273,22.461,-7.812
1642356609.947,30.273,30.762,28.320,25.879,23.926
1642356609.949,31.250,30.762,27.832,27.832,41.016
1642356609.953,34.180,30.762,31.250,32.715,21.484
1642356609.957,36.133,31.738,31.250,28.320,20.020
1642356609.961,28.809,32.227,27.832,23.438,63.965
1642356609.965,25.391,32.715,27.344,22.949,68.359
1642356609.969,26.367,30.273,28.320,16.113,45.898
1642356609.973,24.414,31.250,31.738,18.555,47.852
1642356609.976,24.414,33.203,31.250,26.855,50.781
1642356609.980,23.438,32.227,32.715,25.879,43.945
1642356609.984,24.902,29.785,35.645,23.926,25.391
1642356609.988,26.855,32.227,31.738,24.414,36.133
1642356609.992,24.414,34.668,33.203,23.926,21.973
1642356609.994,23.926,35.156,34.180,24.414,31.250
1642356609.998,24.902,38.574,28.809,26.367,41.992
1642356610.002,22.949,33.203,30.762,24.902,51.270
1642356610.006,21.484,30.762,32.715,20.996,26.367
1642356610.010,18.555,32.227,32.227,19.043,6.348
1642356610.014,20.508,37.109,30.762,22.461,4.883
1642356610.018,22.461,39.062,28.809,21.484,34.180
1642356610.021,20.996,32.227,32.227,21.484,12.695
1642356610.025,15.137,32.227,32.715,16.113,-21.973
1642356610.029,10.254,36.133,33.203,13.672,0.977
1642356610.033,11.719,35.156,35.156,12.207,45.898
1642356610.037,12.695,32.715,34.180,14.160,51.758
1642356610.040,17.090,34.180,31.738,21.484,56.641
1642356610.044,15.137,33.691,32.227,16.602,77.148
1642356610.048,15.137,30.273,34.668,16.602,45.898
1642356610.052,14.648,31.250,32.715,14.648,-6.348
1642356610.056,15.137,32.227,30.762,13.184,-27.832
1642356610.060,16.113,32.227,35.645,21.484,-12.207
1642356610.064,16.602,32.227,33.203,18.555,62.012
1642356610.067,21.973,32.227,27.832,13.672,36.133
1642356610.071,18.066,33.203,28.809,11.719,-33.691
1642356610.075,14.160,31.250,26.855,13.672,29.297
1642356610.079,15.137,28.809,27.344,21.973,71.777
1642356610.083,16.602,30.273,30.762,23.926,47.363
1642356610.084,17.090,34.668,27.344,19.531,29.785
1642356610.088,23.438,38.086,24.902,26.855,30.273
1642356610.092,27.344,38.086,32.227,28.809,27.344
1642356610.096,28.320,40.039,34.180,24.414,-23.438
1642356610.100,28.809,37.109,31.738,29.297,-37.598
1642356610.104,24.414,34.668,30.273,29.785,24.902
1642356610.108,25.391,35.645,30.273,24.902,36.133
1642356610.111,30.762,35.645,30.273,22.461,33.203
1642356610.115,29.297,37.109,31.250,22.461,32.715
1642356610.119,28.320,36.133,32.715,22.461,34.180
1642356610.123,29.297,34.668,32.227,26.367,22.461
1642356610.127,29.785,35.645,33.203,23.926,-19.043
1642356610.129,29.785,37.109,32.227,20.996,-13.672
1642356610.133,30.273,37.598,33.691,24.902,15.625
1642356610.137,23.438,32.715,34.668,28.809,5.371
1642356610.141,19.043,29.785,32.715,25.879,3.418
1642356610.145,29.785,30.762,32.227,29.785,-10.254
1642356610.149,32.715,31.250,32.715,31.250,12.695
1642356610.153,23.926,30.762,35.645,23.438,60.059
1642356610.156,24.414,30.762,34.180,23.926,64.941
1642356610.160,27.832,30.273,34.180,25.391,56.152
1642356610.164,23.438,32.715,34.180,24.414,28.320
1642356610.168,26.367,32.227,31.738,28.320,43.945
1642356610.172,31.738,29.297,32.227,27.344,77.148
1642356610.174,24.902,30.273,31.250,19.043,24.902
1642356610.178,18.066,28.320,32.715,15.137,0.488
1642356610.182,18.555,28.809,31.738,19.531,60.059
1642356610.186,23.926,32.227,30.273,24.414,55.176
1642356610.190,25.391,30.273,27.832,18.066,46.387
1642356610.194,22.461,26.855,27.832,15.625,31.250
1642356610.198,20.508,30.273,26.367,15.625,13.184
1642356610.201,24.414,33.691,26.367,18.555,32.715
1642356610.205,22.461,29.297,31.250,15.625,75.195
1642356610.209,16.602,29.785,26.855,7.812,60.059
1642356610.213,22.949,32.227,23.926,16.602,20.020
1642356610.217,26.367,30.762,30.273,22.461,25.391
1642356610.234,23.438,33.691,30.273,18.555,51.758
1642356610.238,26.367,34.668,27.832,17.578,50.781
1642356610.242,29.785,33.203,28.809,21.484,9.277
1642356610.246,27.344,35.156,29.785,22.949,14.648
1642356610.250,29.785,35.645,31.738,28.320,83.984
1642356610.254,31.250,37.598,30.273,25.879,32.227
1642356610.258,25.391,33.203,31.250,19.043,11.719
1642356610.261,22.949,27.344,32.715,19.531,62.012
1642356610.265,21.973,32.227,29.785,22.461,62.988
1642356610.269,21.973,32.227,32.227,20.996,49.316
1642356610.273,21.973,30.273,28.320,25.391,22.949
1642356610.277,19.531,32.715,24.902,22.461,9.766
1642356610.279,20.020,33.691,32.715,13.184,40.039
1642356610.283,23.438,32.227,33.691,22.461,85.938
1642356610.287,26.855,36.133,29.297,23.438,44.922
1642356610.291,22.949,37.109,32.715,14.160,36.621
1642356610.295,19.043,35.156,35.645,19.043,49.805
1642356610.299,21.484,32.227,35.156,22.949,64.941
1642356610.303,25.879,32.715,31.250,15.137,24.414
1642356610.306,28.809,35.156,27.832,13.672,-20.508
1642356610.310,19.043,33.203,26.855,14.160,-4.883
1642356610.314,11.719,33.203,27.344,12.695,69.336
1642356610.318,13.184,34.180,31.250,14.648,42.480
1642356610.322,16.602,35.645,30.273,12.207,-37.598
1642356610.324,18.066,41.504,27.344,13.672,-29.297
1642356610.328,11.719,37.109,30.273,15.137,-8.301
1642356610.332,13.672,33.691,30.762,14.648,-15.137
1642356610.336,22.949,37.109,28.320,15.625,-20.020
1642356610.340,26.855,37.109,26.855,20.020,-32.715
1642356610.344,25.391,35.645,28.809,22.461,3.906
1642356610.348,23.438,34.180,30.762,23.438,47.852
1642356610.351,28.320,35.645,26.855,27.832,-4.395
1642356610.355,27.344,33.203,27.832,20.996,-45.898
1642356610.359,26.367,30.273,30.762,19.531,2.441
1642356610.363,27.344,33.691,31.250,20.020,34.180
1642356610.367,25.879,35.156,31.738,19.043,-6.836
1642356610.369,27.832,30.273,31.250,21.973,41.016
1642356610.373,22.461,30.762,30.273,22.949,67.871
1642356610.377,16.113,35.156,30.762,25.879,57.129
1642356610.381,25.879,33.203,30.273,29.785,60.547
1642356610.385,28.809,33.203,31.738,29.297,31.250
1642356610.389,19.531,35.156,34.180,17.090,-20.508
1642356610.393,20.996,33.691,34.180,19.043,0.977
1642356610.396,28.809,45.410,39.551,33.691,8.789
1642356610.400,27.832,47.852,41.504,31.738,7.324
1642356610.404,23.438,34.668,36.621,23.926,14.648
1642356610.408,21.973,34.180,36.621,20.020,8.301
1642356610.412,16.113,39.551,38.086,16.602,79.102
1642356610.414,7.324,42.969,38.086,14.160,34.180
1642356610.418,4.395,48.340,45.898,4.883,-19.531
1642356610.422,-0.488,55.176,58.594,-7.812,-0.488
1642356610.426,-10.254,53.223,61.035,-18.066,17.578
1642356610.430,-15.137,50.293,57.129,-23.926,70.801
1642356610.434,-9.766,50.293,56.152,-20.508,39.551
1642356610.438,-7.812,56.152,61.035,-15.137,20.996
1642356610.441,-30.273,62.012,70.312,-35.156,34.668
1642356610.445,-43.457,68.848,75.684,-46.875,23.438
1642356610.449,-53.711,70.312,82.031,-51.270,9.277
1642356610.453,-65.918,76.660,80.566,-67.383,2.930
1642356610.457,-64.453,76.660,80.566,-66.895,77.148
1642356610.459,-55.176,71.289,80.566,-53.223,114.258
1642356610.463,-43.457,65.918,76.172,-38.086,67.871
1642356610.467,-40.039,57.617,71.777,-29.297,39.062
1642356610.471,-28.809,57.129,63.965,-22.461,67.383
1642356610.475,-10.254,48.828,56.641,-4.395,61.523
1642356610.479,-0.488,36.621,46.875,7.324,6.348
1642356610.483,7.324,33.203,38.086,13.672,13.672
1642356610.486,11.230,28.809,32.227,20.508,51.758
1642356610.490,16.602,23.438,32.227,22.461,108.398
1642356610.494,18.066,20.996,28.809,21.973,75.684
1642356610.498,24.902,19.043,22.461,28.320,7.324
1642356610.502,35.156,19.531,21.973,36.133,35.645
1642356610.506,34.180,15.137,17.090,48.340,45.410
1642356610.510,39.551,14.160,17.090,52.246,41.992
1642356610.514,46.875,16.113,21.484,43.945,20.020
1642356610.518,40.527,14.648,17.090,42.969,7.812
1642356610.522,43.457,14.648,11.719,47.852,45.898
1642356610.526,52.734,12.207,15.137,44.434,55.176
1642356610.530,50.781,14.160,11.230,36.133,-9.277
1642356610.533,48.340,16.602,7.812,32.715,4.395
1642356610.537,51.758,13.184,11.230,41.992,38.574
1642356610.541,54.688,13.672,10.742,48.828,63.965
1642356610.545,49.316,13.184,8.301,41.992,85.449
1642356610.549,48.828,14.648,10.254,43.945,55.664
1642356610.549,51.758,15.137,8.301,50.293,41.504
1642356610.553,44.922,12.207,7.812,51.758,30.273
1642356610.557,42.969,13.184,9.766,46.387,-1.465
1642356610.561,49.316,15.137,8.789,41.016,44.434
1642356610.565,47.363,13.672,11.230,40.527,67.871
1642356610.569,48.828,13.672,12.207,48.828,31.250
1642356610.573,48.340,18.066,10.742,52.246,18.066
1642356610.576,39.062,20.996,13.184,42.480,16.602
1642356610.580,41.016,18.066,16.113,43.945,20.508
1642356610.584,41.992,15.625,18.555,50.781,15.137
1642356610.588,36.133,15.137,18.066,48.340,40.527
1642356610.592,37.109,18.555,15.625,40.527,21.973
1642356610.610,39.062,17.578,18.555,37.598,-9.277
1642356610.614,37.598,15.625,18.555,41.016,-2.930
1642356610.618,41.992,17.090,20.508,44.922,28.809
1642356610.622,44.434,18.555,24.902,44.434,79.102
1642356610.626,42.480,17.578,24.902,41.504,58.105
1642356610.630,41.992,22.949,24.414,38.574,21.973
1642356610.634,43.457,23.926,20.020,43.945,78.125
1642356610.637,45.410,18.066,20.508,41.504,102.051
1642356610.641,48.340,20.996,20.996,32.227,11.719
1642356610.645,47.363,21.484,20.996,28.320,-56.152
1642356610.649,43.457,21.484,21.484,28.320,-0.977
1642356610.653,41.016,20.996,23.438,31.250,29.297
1642356610.654,38.086,19.043,27.344,30.762,-21.484
1642356610.658,37.598,20.020,28.809,30.273,-20.996
1642356610.662,41.016,26.367,28.809,29.297,25.391
1642356610.666,35.645,29.785,23.438,33.203,66.895
1642356610.670,29.297,23.438,21.973,35.645,59.570
1642356610.674,25.391,20.508,25.879,32.227,10.254
1642356610.678,29.297,25.391,27.832,35.645,-2.441
1642356610.681,36.133,28.320,31.250,42.480,36.133
1642356610.685,39.062,28.320,31.250,37.598,3.906
1642356610.689,37.109,27.344,31.250,28.320,4.883
1642356610.693,31.250,27.344,31.250,30.762,26.855
1642356610.697,35.156,30.273,25.391,33.691,27.344
1642356610.729,35.645,30.762,25.879,24.902,31.738
1642356610.733,36.621,30.762,28.320,25.879,-17.578
1642356610.737,37.109,33.691,27.832,28.320,-23.926
1642356610.741,30.273,34.180,25.879,25.391,16.602
1642356610.745,33.203,30.762,27.344,27.344,-2.441
1642356610.749,36.621,32.227,30.273,26.367,-15.625
1642356610.753,30.273,34.180,29.297,20.020,-7.812
1642356610.756,28.809,29.785,31.250,20.996,12.207
1642356610.760,30.762,29.297,34.668,22.949,66.895
1642356610.764,24.414,34.668,32.227,15.137,30.762
1642356610.768,23.438,32.715,30.762,16.602,22.949
1642356610.772,22.949,28.809,31.738,17.578,55.664
1642356610.744,21.973,26.855,32.715,18.555,47.363
1642356610.748,27.344,29.785,30.762,22.461,29.297
1642356610.752,28.809,33.691,28.809,23.438,43.945
1642356610.756,22.461,32.715,30.762,23.926,16.602
1642356610.760,18.555,29.297,31.738,24.414,54.688
1642356610.764,22.461,30.273,32.715,27.344,83.496
1642356610.768,27.832,34.668,33.691,27.832,47.852
1642356610.771,27.344,31.250,31.738,27.344,43.457
1642356610.775,24.414,26.367,29.785,28.809,38.086
1642356610.779,26.367,27.832,28.809,28.320,24.902
1642356610.783,30.273,28.809,29.785,24.414,-8.301
1642356610.787,32.715,28.320,29.297,23.926,-30.273
1642356610.789,31.738,30.273,26.855,22.461,32.227
1642356610.793,25.879,31.250,28.320,19.531,86.914
1642356610.797,25.879,28.809,31.738,22.461,-14.160
1642356610.801,29.785,31.250,30.762,20.996,-15.625
1642356610.805,22.949,34.180,30.762,18.066,12.695
1642356610.809,20.996,32.715,28.809,23.926,-7.324
1642356610.813,23.926,30.762,28.320,16.602,64.941
1642356610.816,20.996,30.273,31.250,8.789,34.668
1642356610.820,20.996,32.715,30.762,18.066,-52.734
1642356610.824,22.461,33.203,31.250,23.438,-1.465
1642356610.828,21.973,30.273,32.715,23.438,52.246
1642356610.832,22.949,33.203,30.273,18.066,36.621
1642356610.849,25.879,35.156,30.762,16.602,7.324
1642356610.853,29.785,34.180,31.738,27.344,20.020
1642356610.857,22.461,37.109,33.203,28.809,0.000
1642356610.861,19.043,37.598,32.227,25.391,-8.789
1642356610.865,28.320,35.156,28.320,29.785,28.809
1642356610.869,26.367,34.668,27.832,28.320,29.297
1642356610.873,24.414,33.691,29.785,25.391,37.109
1642356610.876,27.344,34.180,32.715,28.809,28.809
1642356610.880,30.273,37.109,32.715,26.855,25.879
1642356610.884,35.156,36.133,32.715,26.855,13.184
1642356610.888,34.180,34.180,31.738,35.645,-4.395
1642356610.892,33.691,36.621,33.691,34.180,22.461
1642356610.879,26.367,36.621,34.668,28.320,30.273
1642356610.883,17.090,29.785,31.738,22.949,0.488
1642356610.887,16.602,27.344,34.180,23.438,54.688
1642356610.891,20.020,30.762,34.180,25.391,89.355
1642356610.895,20.508,29.785,34.180,18.555,10.742
1642356610.899,20.508,26.855,34.180,19.531,-41.992
1642356610.903,18.066,27.832,35.156,25.391,-2.930
1642356610.906,18.066,29.785,36.133,22.949,28.809
1642356610.910,24.414,30.762,34.668,17.090,15.137
1642356610.914,23.438,29.785,35.156,18.066,60.059
1642356610.918,21.484,29.297,36.133,14.160,93.262
1642356610.922,22.461,34.180,34.668,12.695,23.438
1642356610.924,17.578,32.715,33.203,15.137,67.383
1642356610.928,17.090,27.344,32.715,13.672,64.453
1642356610.932,16.602,29.785,31.738,16.113,3.418
1642356610.936,16.602,31.738,30.762,17.578,13.672
1642356610.940,22.461,31.738,32.715,21.484,-3.418
1642356610.944,26.855,31.738,33.691,22.461,-12.207
1642356610.948,29.297,29.785,30.762,24.902,-10.254
1642356610.951,27.344,31.738,28.809,23.926,33.691
1642356610.955,26.367,31.250,30.762,23.438,63.965
1642356610.959,23.438,29.785,30.273,24.902,39.551
1642356610.963,24.414,28.809,33.691,24.902,25.879
1642356610.967,26.855,27.832,35.156,30.273,6.836
1642356610.970,20.996,32.715,32.715,32.715,30.273
1642356610.974,22.461,34.180,31.738,31.738,6.348
1642356610.978,32.227,31.250,30.762,30.273,-20.996
1642356610.982,30.273,30.273,30.762,24.414,25.391
1642356610.986,28.809,31.738,31.250,24.414,54.688
1642356610.990,32.227,29.785,29.785,24.414,31.738
1642356610.994,31.250,30.273,29.297,21.484,9.766
1642356610.997,26.855,35.645,31.738,23.926,-15.137
1642356611.001,20.508,32.227,34.180,28.320,13.184
1642356611.005,19.531,29.297,34.668,21.484,9.277
1642356611.009,20.996,31.738,31.738,11.719,-19.531
1642356611.013,23.926,29.785,30.762,13.184,25.391
1642356611.029,24.414,29.297,35.156,16.602,34.180
1642356611.033,24.902,28.809,36.621,16.602,38.574
1642356611.037,25.879,31.738,34.668,13.184,74.707
1642356611.041,26.367,30.762,33.203,19.043,17.090
1642356611.045,25.879,27.832,31.738,21.973,37.109
1642356611.049,20.508,27.344,31.250,15.625,121.094
1642356611.053,22.461,26.367,30.762,13.184,55.664
1642356611.056,22.461,24.414,31.738,10.254,-35.645
1642356611.060,22.461,24.902,32.227,20.508,18.555
1642356611.064,27.832,24.414,34.180,27.832,80.078
1642356611.068,24.414,24.902,35.156,21.484,44.922
1642356611.072,20.508,27.344,32.715,22.461,57.129
1642356611.074,18.066,26.367,32.715,21.484,104.492
1642356611.078,16.113,29.297,29.297,19.531,44.434
1642356611.082,20.020,28.320,28.320,24.414,-3.906
1642356611.086,27.344,27.832,31.250,29.785,-6.836
1642356611.090,22.461,29.785,31.738,21.973,-45.898
1642356611.094,15.625,25.391,33.203,14.648,0.488
1642356611.098,18.555,25.391,34.180,17.578,84.961
1642356611.101,16.113,27.344,33.203,17.578,49.805
1642356611.105,12.207,26.855,32.227,13.184,7.324
1642356611.109,16.602,25.879,31.738,14.160,21.973
1642356611.113,14.648,29.785,31.738,17.578,70.312
1642356611.117,11.719,33.203,32.715,13.184,62.500
1642356611.120,13.184,29.785,30.273,12.695,2.441
1642356611.124,11.230,27.344,30.762,17.578,17.090
1642356611.128,16.113,27.344,30.273,19.531,88.379
1642356611.132,23.438,30.762,27.344,21.973,59.082
1642356611.136,20.020,32.227,27.832,15.625,-24.902
1642356611.140,20.508,29.297,29.785,8.301,-1.953
1642356611.144,17.578,29.297,29.785,9.277,39.062
1642356611.147,12.207,33.691,28.320,10.254,54.688
1642356611.151,12.695,32.227,32.227,11.719,17.578
1642356611.155,15.137,34.180,30.273,8.301,-16.602
1642356611.159,20.508,34.180,26.367,12.207,18.066
1642356611.163,25.391,27.832,31.250,24.414,26.855
1642356611.164,26.855,29.297,32.715,28.320,35.156
1642356611.168,29.297,33.203,30.762,34.180,24.414
1642356611.172,31.738,32.715,32.227,38.574,20.508
1642356611.176,24.902,27.344,36.621,37.598,63.965
1642356611.180,22.949,29.297,33.691,33.203,63.965
1642356611.184,21.973,29.297,31.250,24.414,10.254
1642356611.188,18.555,26.855,36.621,25.391,-7.324
1642356611.191,26.855,32.227,34.668,29.297,37.109
1642356611.195,25.391,29.297,33.203,24.414,66.406
1642356611.199,20.020,26.855,34.180,26.367,97.168
1642356611.203,25.879,34.180,31.250,26.855,98.633
1642356611.207,26.367,32.715,31.250,23.926,60.059
1642356611.209,25.391,31.250,30.273,24.902,18.066
1642356611.213,27.344,33.691,26.855,19.043,-6.836
1642356611.217,25.391,29.785,29.785,17.578,14.648
1642356611.221,23.926,29.297,32.227,21.484,14.648
1642356611.225,20.508,36.621,29.785,14.160,47.363
1642356611.229,17.090,39.062,29.297,8.301,65.918
1642356611.233,19.531,33.691,30.273,14.648,40.039
1642356611.236,20.020,31.738,32.715,15.137,11.230
1642356611.240,23.438,35.156,29.785,13.184,29.785
1642356611.244,32.227,35.156,28.809,15.625,41.016
1642356611.248,32.227,33.203,31.250,14.160,27.832
1642356611.252,26.855,35.645,27.344,10.254,15.137
1642356611.254,25.879,41.504,27.344,11.230,63.477
1642356611.258,24.414,39.551,29.785,11.230,78.613
1642356611.262,29.297,37.109,27.832,8.789,10.742
1642356611.266,29.785,38.086,26.855,6.836,33.691
1642356611.270,24.902,36.133,28.320,13.184,39.062
1642356611.274,23.926,34.180,31.738,21.973,23.438
1642356611.278,22.461,32.227,30.273,22.949,-6.348
1642356611.281,27.344,30.762,27.344,22.461,36.133
1642356611.285,26.855,29.785,30.762,24.902,99.609
1642356611.289,21.484,31.738,29.297,23.438,60.059
1642356611.293,20.996,34.180,25.391,15.625,3.418
1642356611.297,21.973,30.273,26.855,14.648,17.090
1642356611.299,21.484,28.320,25.879,19.531,5.371
1642356611.303,19.531,29.297,25.879,25.391,-25.391
1642356611.307,13.184,30.762,26.855,24.902,-3.906
1642356611.311,23.438,34.180,26.367,22.949,-21.484
1642356611.315,29.785,33.691,29.785,23.926,-0.488
1642356611.319,17.578,31.738,30.273,23.926,20.996
1642356611.323,18.066,32.227,30.273,28.809,-21.973
1642356611.326,22.949,34.180,32.227,27.832,2.930
1642356611.330,19.043,31.250,30.273,19.043,41.016
1642356611.334,20.508,28.320,26.855,20.020,51.270
1642356611.338,26.855,28.320,29.785,26.367,29.785
1642356611.342,22.461,29.785,32.227,18.066,16.113
1642356611.359,19.043,32.715,29.297,13.672,45.898
1642356611.363,17.578,30.762,29.297,18.555,64.453
1642356611.367,19.043,30.273,26.367,19.043,47.363
1642356611.371,24.902,30.273,24.902,19.043,9.277
1642356611.375,27.344,32.715,27.344,15.625,-36.133
1642356611.379,26.367,36.621,28.809,14.648,-3.906
1642356611.383,22.949,37.109,27.832,16.602,55.176
1642356611.386,19.531,33.203,26.367,19.043,35.645
1642356611.390,20.508,33.691,27.344,20.508,28.809
1642356611.394,24.414,33.691,29.785,18.555,2.930
1642356611.398,25.879,29.785,28.809,20.020,14.160
1642356611.402,24.414,29.297,29.785,18.555,24.414
1642356611.404,20.020,27.832,33.691,19.043,34.180
1642356611.408,21.973,32.227,33.691,26.367,38.574
1642356611.412,25.391,35.645,28.809,29.297,-41.016
1642356611.416,23.926,30.273,27.832,29.297,-20.996
1642356611.420,20.996,26.367,30.762,22.461,48.340
1642356611.424,22.949,28.320,33.203,22.949,21.973
1642356611.428,25.391,29.785,33.691,25.391,63.477
1642356611.431,23.438,28.320,33.691,28.320,89.355
1642356611.435,26.855,27.344,33.691,30.273,62.012
1642356611.439,25.391,28.320,32.227,23.438,85.938
1642356611.443,16.113,32.715,31.738,20.508,79.590
1642356611.447,17.090,29.297,30.273,23.926,45.898
1642356611.449,22.461,27.344,31.250,21.973,16.113
1642356611.453,25.391,31.250,33.203,17.090,-4.883
1642356611.457,28.320,33.203,32.715,18.066,62.500
1642356611.461,23.438,31.250,29.785,18.555,65.430
1642356611.465,22.949,29.297,30.273,22.949,60.547
1642356611.469,24.902,27.344,33.691,21.973,40.527
1642356611.473,20.508,29.785,30.762,12.207,-4.883
1642356611.476,19.043,31.738,29.785,15.137,16.602
1642356611.480,21.973,32.227,33.203,19.043,46.875
1642356611.484,20.020,36.621,32.227,12.695,53.223
1642356611.488,21.973,38.086,29.297,15.137,20.020
1642356611.492,29.297,32.227,31.250,23.926,32.715
1642356611.495,37.109,34.668,29.297,29.785,67.871
1642356611.499,32.715,37.598,30.273,25.391,35.645
1642356611.503,27.344,30.762,33.691,20.508,26.855
1642356611.507,31.738,29.785,31.250,22.461,60.059
1642356611.511,30.762,34.180,29.297,24.414,64.941
1642356611.515,31.250,35.156,32.715,31.738,45.898
1642356611.519,25.879,30.273,34.180,28.809,52.734
1642356611.522,19.531,28.809,30.273,18.555,11.230
1642356611.526,22.461,28.320,28.809,22.461,-15.625
1642356611.530,22.949,29.785,30.762,24.414,6.348
1642356611.534,20.996,30.273,31.738,19.531,17.090
1642356611.538,23.926,30.273,30.762,19.531,40.039
1642356611.539,22.461,32.227,31.738,23.438,29.785
1642356611.543,17.578,28.809,35.645,26.855,3.418
1642356611.547,16.602,28.320,35.645,24.902,-5.859
1642356611.551,17.578,27.344,33.691,25.879,-20.996
1642356611.555,19.531,27.344,34.180,28.809,6.348
1642356611.559,15.137,26.855,35.645,22.949,76.172
1642356611.563,17.578,25.391,36.621,24.902,54.199
1642356611.566,27.344,27.832,34.180,25.391,31.250
1642356611.570,28.320,30.273,32.227,23.926,41.016
1642356611.574,21.484,30.762,31.738,23.926,14.160
1642356611.578,15.625,29.297,31.738,16.602,9.766
1642356611.582,14.648,27.832,33.691,18.555,37.109
1642356611.584,17.578,26.367,32.227,24.414,35.156
1642356611.588,11.230,26.367,29.297,20.508,14.648
1642356611.592,21.484,30.273,26.855,27.344,47.852
1642356611.596,33.691,28.809,27.832,28.320,41.992
1642356611.600,28.320,27.832,28.809,22.949,0.977
1642356611.604,31.738,30.273,27.344,28.320,3.418
1642356611.608,31.250,28.320,28.809,28.809,-8.789
1642356611.611,30.273,31.250,27.344,23.438,36.133
1642356611.615,26.855,36.621,28.320,22.949,53.711
1642356611.619,24.902,36.133,29.785,25.879,24.902
1642356611.623,33.203,34.668,28.809,33.203,7.324
1642356611.627,31.250,33.691,30.762,36.133,3.906
1642356611.629,26.855,31.250,28.320,30.273,-11.719
1642356611.633,22.461,29.297,27.344,32.715,-20.996
1642356611.637,20.020,29.297,30.273,33.203,33.203
1642356611.641,29.785,28.809,27.832,32.227,8.301
1642356611.645,28.809,27.344,26.367,29.297,-2.930
1642356611.649,16.602,23.438,27.832,25.391,64.453
1642356611.653,20.996,28.809,28.320,25.391,45.898
1642356611.656,26.367,32.715,29.297,20.996,27.344
1642356611.660,21.973,29.785,29.297,18.555,65.430
1642356611.664,22.949,29.297,28.320,19.043,64.453
1642356611.668,23.926,29.785,29.297,20.508,59.570
1642356611.672,19.043,30.762,30.762,21.973,40.527
1642356611.675,19.531,30.762,30.273,23.926,32.227
1642356611.679,24.414,29.785,28.809,21.484,5.371
1642356611.683,25.879,28.320,30.762,16.602,-22.461
1642356611.687,31.250,30.273,30.273,21.973,12.695
1642356611.691,33.691,31.250,30.762,31.250,24.414
1642356611.695,23.926,28.809,32.227,24.414,4.883
1642356611.699,16.602,28.809,30.273,13.672,-41.504
1642356611.702,19.531,29.297,31.250,22.949,-30.273
1642356611.706,20.996,27.344,32.227,28.320,45.898
1642356611.710,24.414,27.832,32.227,21.973,58.594
1642356611.714,25.879,29.785,35.645,21.484,18.555
1642356611.718,25.391,27.344,35.645,30.273,18.555
1642356611.734,27.344,31.250,32.715,33.691,58.105
1642356611.738,26.855,32.227,32.715,27.832,34.668
1642356611.742,27.832,31.250,30.762,27.344,1.953
1642356611.746,27.832,33.691,29.297,27.344,17.090
1642356611.750,27.344,29.785,28.320,24.902,62.012
1642356611.754,26.855,28.809,25.879,21.484,73.242
1642356611.758,22.461,29.297,29.297,14.648,38.574
1642356611.761,20.508,29.297,29.785,19.531,18.066
1642356611.765,27.832,34.180,26.367,22.461,43.457
1642356611.769,31.738,37.109,24.902,20.996,67.871
1642356611.773,29.785,30.273,27.344,22.461,39.551
1642356611.777,25.879,28.809,30.273,15.137,20.020
1642356611.779,25.879,32.715,30.762,16.602,-1.465
1642356611.783,24.414,32.227,30.762,20.996,14.648
1642356611.787,27.832,32.227,28.320,15.625,5.859
1642356611.791,29.785,31.738,24.902,10.742,-38.086
1642356611.795,26.367,31.250,26.367,14.160,-12.207
1642356611.799,24.902,33.203,24.902,20.996,79.102
1642356611.803,21.973,35.156,23.438,20.508,66.406
1642356611.806,19.043,35.645,29.785,21.973,-23.438
1642356611.810,16.602,32.715,31.250,24.902,9.277
1642356611.814,14.648,31.250,25.879,20.996,55.664
1642356611.818,16.602,32.715,27.344,22.949,44.922
1642356611.822,19.531,31.738,30.762,27.344,7.812
1642356611.825,12.207,28.809,31.738,16.113,-11.719
1642356611.829,15.137,32.227,28.809,17.090,18.555
1642356611.833,20.508,34.668,28.320,23.926,54.688
1642356611.837,13.184,31.250,31.250,12.695,22.949
1642356611.841,16.602,33.691,32.227,11.230,20.996
1642356611.845,21.484,33.691,31.738,20.996,83.984
1642356611.849,23.438,28.320,33.203,25.879,116.211
1642356611.852,22.949,27.832,32.227,25.391,81.543
1642356611.856,24.414,31.250,29.785,27.832,49.805
1642356611.860,19.531,34.180,33.203,23.926,54.199
1642356611.864,21.973,34.668,32.227,23.438,69.336
1642356611.868,25.391,32.715,27.832,18.555,27.832
1642356611.869,18.555,29.297,29.297,16.602,-12.695
1642356611.873,24.902,31.738,28.320,26.367,7.812
1642356611.877,26.855,35.645,27.832,28.809,61.523
1642356611.881,18.066,31.250,30.273,25.879,77.148
1642356611.885,16.602,27.344,28.320,18.066,61.035
1642356611.889,18.555,28.320,28.320,20.020,45.898
1642356611.893,15.625,28.809,29.297,19.531,35.156
1642356611.896,19.531,33.203,27.832,12.207,26.855
1642356611.900,29.297,37.598,27.832,14.160,-5.371
1642356611.904,30.762,38.574,28.809,13.672,-10.254
1642356611.908,31.250,38.086,30.273,21.973,41.016
1642356611.912,31.738,36.621,33.691,27.344,41.016
1642356611.914,32.715,36.133,31.738,24.902,-5.859
1642356611.918,31.738,30.762,27.344,29.297,-7.812
1642356611.922,26.855,29.785,28.809,20.996,15.137
1642356611.926,23.926,31.250,29.297,17.578,51.270
1642356611.930,21.973,29.297,32.227,25.391,11.719
1642356611.934,19.531,29.785,31.738,21.484,-20.996
1642356611.938,22.461,30.273,28.320,18.555,5.859
1642356611.941,19.531,31.250,32.227,16.113,39.062
1642356611.945,17.090,31.250,31.250,10.742,34.180
1642356611.949,19.043,26.367,28.320,11.230,15.625
1642356611.953,21.973,26.855,27.344,12.695,48.340
1642356611.957,22.949,32.715,27.832,16.602,79.102
1642356611.961,25.879,31.250,28.320,15.625,63.965
1642356611.965,30.273,25.879,26.855,16.113,39.551
1642356611.969,26.855,26.855,27.344,21.484,9.277
1642356611.973,21.973,30.273,28.320,20.996,-2.441
1642356611.977,23.438,28.809,25.391,21.484,9.766
1642356611.981,23.926,28.809,28.809,21.484,-10.742
1642356611.985,24.902,34.180,32.227,20.996,6.348
1642356611.988,24.902,32.227,29.297,19.043,17.090
1642356611.992,26.367,30.273,25.879,20.996,1.465
1642356611.996,33.691,33.203,25.391,25.879,24.414
1642356612.000,34.180,33.691,27.344,27.344,42.969
1642356612.004,30.273,35.645,26.367,25.391,51.270
1642356612.004,26.855,36.621,24.902,23.438,44.922
1642356612.008,25.879,32.715,25.391,19.043,67.871
1642356612.012,25.391,28.809,30.273,16.113,62.988
1642356612.016,21.973,31.250,29.297,19.043,37.109
1642356612.020,23.438,32.715,25.391,26.367,2.441
1642356612.024,24.414,30.273,25.879,27.344,32.715
1642356612.028,23.926,27.344,28.809,24.414,27.832
1642356612.031,23.438,30.273,27.344,16.602,-18.066
1642356612.035,23.438,31.738,29.297,16.113,46.387
1642356612.039,24.414,31.250,30.273,23.438,27.832
1642356612.043,19.531,33.203,29.785,17.090,15.625
1642356612.047,19.043,30.762,30.762,15.625,40.039
1642356612.050,19.531,29.785,29.785,20.996,27.832
1642356612.054,20.020,34.180,31.250,18.555,58.105
1642356612.058,22.461,33.203,29.785,20.508,85.938
1642356612.062,26.367,27.344,32.227,20.996,80.078
1642356612.066,24.414,30.762,33.203,19.531,13.672
1642356612.070,22.461,35.156,31.250,26.855,21.973
1642356612.074,21.484,34.180,33.203,22.461,80.078
1642356612.077,23.438,35.156,32.715,20.996,18.066
1642356612.081,25.391,32.227,35.156,25.879,2.441
1642356612.085,25.391,34.668,33.691,25.879,9.277
1642356612.089,27.344,37.598,31.738,30.762,-4.395
1642356612.093,22.461,31.738,33.691,24.902,59.570
1642356612.124,23.438,28.320,31.738,16.602,44.922
1642356612.128,28.809,34.180,32.227,22.949,5.859
1642356612.132,24.414,37.109,35.156,25.391,-21.484
1642356612.136,21.484,32.227,36.621,20.508,-28.809
1642356612.140,26.367,31.250,35.156,21.484,-6.348
1642356612.144,28.320,32.227,33.691,24.902,-27.344
1642356612.148,28.809,33.691,33.203,32.715,-20.508
1642356612.151,26.855,36.133,32.227,30.273,-2.930
1642356612.155,23.438,35.645,32.227,20.020,3.418
1642356612.159,21.973,33.203,31.738,22.461,11.230
1642356612.163,21.484,31.738,32.715,28.809,0.488
1642356612.167,19.531,30.762,33.691,21.484,-33.203
1642356612.169,16.602,29.785,33.203,13.184,25.879
1642356612.173,16.113,28.809,35.156,18.066,78.613
1642356612.177,16.602,34.668,31.738,19.531,31.738
1642356612.181,16.113,34.668,31.250,25.879,23.926
1642356612.185,15.625,30.762,35.645,28.320,35.645
1642356612.189,12.695,28.809,30.273,18.555,7.324
1642356612.193,11.230,26.367,26.855,16.113,-17.090
1642356612.196,14.160,27.344,27.832,15.625,40.039
1642356612.200,16.113,24.414,28.809,14.160,79.590
1642356612.204,25.391,29.297,26.855,19.043,34.180
1642356612.208,27.344,30.762,26.367,22.949,11.719
1642356612.212,20.996,26.855,29.785,18.555,29.297
1642356612.200,24.414,29.297,29.785,17.578,40.039
1642356612.204,26.367,31.738,29.785,15.625,15.137
1642356612.208,21.484,31.250,30.273,19.043,5.859
1642356612.212,20.508,27.832,27.832,21.973,1.465
1642356612.216,20.996,25.879,28.320,19.043,35.645
1642356612.220,20.020,30.762,31.738,23.926,21.973
1642356612.224,19.043,34.668,30.762,24.414,22.949
1642356612.227,21.484,34.668,27.344,16.602,73.242
1642356612.231,20.020,32.227,30.762,13.184,69.336
1642356612.235,22.461,37.109,32.227,17.090,80.078
1642356612.239,21.973,39.551,30.762,15.137,36.133
1642356612.243,13.672,35.645,28.809,14.648,-16.113
1642356612.244,8.301,35.156,32.227,13.672,23.438
1642356612.248,11.230,34.668,45.410,13.184,76.660
1642356612.252,16.113,38.086,42.480,14.648,16.113
1642356612.256,12.695,40.039,41.016,11.719,-38.574
1642356612.260,14.160,47.363,54.688,16.602,37.598
1642356612.264,9.277,54.688,48.828,12.207,118.652
1642356612.268,-5.859,43.457,41.504,0.488,45.898
1642356612.271,-13.184,43.945,53.711,-5.371,20.996
1642356612.275,-18.066,55.176,62.988,-6.836,37.109
1642356612.279,-25.391,61.035,63.477,-20.508,22.949
1642356612.283,-30.273,60.059,68.359,-40.039,83.008
1642356612.287,-37.598,62.012,76.172,-45.410,65.430
1642356612.289,-52.734,72.266,82.520,-52.246,43.945
1642356612.293,-66.895,75.684,90.332,-66.406,80.566
1642356612.297,-73.242,77.148,92.773,-77.637,27.344
1642356612.301,-79.102,79.102,90.820,-80.078,-19.043
1642356612.305,-75.195,73.242,91.309,-75.684,15.625
1642356612.309,-62.988,68.359,88.379,-71.289,32.715
1642356612.313,-56.152,65.918,81.543,-59.570,57.129
1642356612.316,-49.805,59.570,73.242,-51.758,60.547
1642356612.320,-33.691,56.641,64.453,-38.086,28.320
1642356612.324,-16.602,54.199,61.523,-10.742,-3.418
1642356612.328,-7.812,45.410,52.246,-2.441,33.691
1642356612.332,1.953,36.133,41.504,-4.883,45.898
1642356612.334,9.766,26.855,35.645,4.395,-20.508
1642356612.338,14.160,23.438,32.227,16.113,20.996
1642356612.342,15.137,20.996,25.391,20.020,56.152
1642356612.346,21.973,15.625,18.555,27.344,14.648
1642356612.350,32.227,15.137,13.672,35.156,20.996
1642356612.354,28.320,14.648,11.230,30.273,16.602
1642356612.358,38.574,15.137,6.836,42.480,29.297
1642356612.361,47.852,15.137,4.395,45.898,7.812
1642356612.365,51.758,13.672,6.348,48.340,-55.664
1642356612.369,51.758,13.672,3.906,57.129,0.977
1642356612.373,42.480,10.742,0.977,50.293,71.777
1642356612.377,49.316,10.254,-1.465,54.688,42.480
1642356612.379,55.664,13.184,-1.953,55.664,18.555
1642356612.383,54.199,11.719,1.465,48.828,3.418
1642356612.387,55.664,10.742,1.953,54.199,16.113
1642356612.391,59.570,13.184,1.953,58.594,40.527
1642356612.395,69.824,13.672,0.977,61.035,36.621
1642356612.399,68.848,13.184,1.465,58.105,18.066
1642356612.403,59.082,12.207,6.836,55.176,22.461
1642356612.406,53.223,9.277,7.324,55.664,69.336
1642356612.410,54.688,10.254,6.836,53.711,63.965
1642356612.414,50.781,15.625,6.836,52.734,-7.324
1642356612.418,49.316,16.602,7.812,52.734,-11.719
1642356612.422,54.688,14.648,8.301,57.129,73.242
1642356612.425,54.688,15.625,7.324,53.711,67.383
1642356612.429,53.711,16.602,10.742,50.781,-1.953
1642356612.433,51.758,17.578,12.207,49.805,12.207
1642356612.437,54.199,19.043,9.766,47.852,54.688
1642356612.441,55.176,21.484,12.695,47.852,35.645
1642356612.445,49.805,21.973,17.578,41.992,5.859
1642356612.449,51.758,24.414,20.508,39.062,29.785
1642356612.452,55.664,28.809,19.531,45.898,57.129
1642356612.456,53.711,26.855,15.137,41.016,38.574
1642356612.460,45.898,22.949,14.648,38.086,29.297
1642356612.464,39.551,23.438,17.090,39.551,-0.488
1642356612.468,41.016,27.344,18.066,39.062,-9.766
1642356612.485,45.410,24.414,19.043,42.480,17.578
1642356612.489,38.086,23.926,19.531,33.691,39.551
1642356612.493,35.156,25.879,21.484,34.180,40.527
1642356612.497,38.574,24.414,20.996,41.504,30.762
1642356612.501,41.504,29.297,20.508,42.969,50.781
1642356612.505,41.504,30.762,24.414,40.039,38.574
1642356612.509,39.551,30.762,22.949,36.133,-35.156
1642356612.512,39.062,33.203,21.973,37.598,30.273
1642356612.516,41.016,32.715,25.879,35.645,33.691
1642356612.520,51.758,35.645,25.391,31.738,-39.062
1642356612.524,59.570,36.133,23.926,35.645,-32.715
1642356612.528,49.805,31.738,27.344,37.598,-0.488
1642356612.530,42.480,33.203,27.344,35.156,48.340
1642356612.534,43.945,35.645,25.879,37.109,30.273
1642356612.538,41.016,32.715,28.809,38.086,12.207
1642356612.542,37.109,34.180,29.785,39.062,11.719
1642356612.546,33.203,33.691,28.809,41.992,18.555
1642356612.550,24.902,26.855,30.273,36.621,52.246
1642356612.554,26.367,28.320,28.809,32.715,7.812
1642356612.557,33.691,30.273,29.297,35.156,31.738
1642356612.561,33.691,25.391,33.203,34.180,62.012
1642356612.565,28.320,30.273,29.785,35.645,10.742
1642356612.569,25.879,30.273,27.344,34.180,41.016
1642356612.573,25.391,28.320,30.273,28.320,38.574
1642356612.574,27.832,31.738,28.320,28.320,28.809
1642356612.578,28.320,31.250,29.785,27.344,44.922
1642356612.582,20.508,27.344,31.738,26.367,49.316
1642356612.586,23.438,25.391,29.785,25.879,46.387
1642356612.590,22.461,27.344,30.273,21.973,41.992
1642356612.594,18.066,29.297,31.738,21.973,35.156
1642356612.598,23.438,28.809,32.715,28.809,29.785
1642356612.601,19.531,27.344,34.180,28.320,40.527
1642356612.605,14.160,26.367,34.668,22.461,28.809
1642356612.609,15.137,27.344,32.715,19.531,17.090
1642356612.613,12.207,28.320,29.297,23.438,37.598
1642356612.617,18.066,28.809,33.203,30.762,78.125
1642356612.619,20.508,30.762,33.203,22.949,84.961
1642356612.623,19.531,28.809,30.762,18.555,41.504
1642356612.627,19.043,27.344,32.227,23.926,64.453
1642356612.631,17.578,29.297,28.809,21.484,11.719
1642356612.635,17.090,29.297,26.855,16.113,-47.363
1642356612.639,17.578,31.250,27.832,18.066,12.695
1642356612.643,21.484,32.715,30.273,21.973,65.918
1642356612.646,18.066,32.715,30.273,20.020,33.203
1642356612.650,18.555,35.645,28.809,18.555,26.855
1642356612.654,19.043,33.203,29.297,14.648,13.184
1642356612.658,16.602,27.344,29.785,16.113,2.930
1642356612.662,16.113,26.855,27.344,16.602,32.715
1642356612.680,20.020,29.297,29.785,18.066,31.250
1642356612.684,25.879,34.668,29.785,20.996,41.016
1642356612.688,28.809,35.156,28.320,21.973,71.289
1642356612.692,30.273,30.273,32.715,25.879,57.129
1642356612.696,30.762,29.785,33.203,23.926,7.324
1642356612.700,26.367,31.250,33.203,22.949,4.395
1642356612.704,24.902,37.109,34.668,20.020,-13.672
1642356612.707,29.785,38.574,36.621,22.949,23.438
1642356612.711,25.879,36.621,34.180,23.926,62.012
1642356612.715,18.555,34.180,31.738,19.531,55.664
1642356612.719,22.949,29.297,30.762,20.508,63.477
1642356612.723,27.344,30.762,30.273,22.949,36.621
1642356612.709,22.949,29.297,34.180,23.926,-25.879
1642356612.713,20.020,31.738,33.691,24.902,11.719
1642356612.717,23.438,34.668,32.227,26.855,62.988
1642356612.721,29.785,32.227,33.691,27.832,53.223
1642356612.725,29.297,38.086,32.227,30.273,25.879
1642356612.729,28.809,37.109,32.227,25.391,-4.395
1642356612.733,32.227,32.227,31.250,26.367,-24.414
1642356612.736,39.551,34.180,31.250,39.551,-3.418
1642356612.740,37.109,35.645,33.203,34.180,14.648
1642356612.744,35.645,35.156,31.738,20.508,5.859
1642356612.748,41.016,37.598,27.344,21.973,7.324
1642356612.752,34.668,37.598,26.855,21.973,39.551
1642356612.754,31.738,34.180,28.320,24.414,43.457
1642356612.758,29.785,33.203,29.297,27.832,9.277
1642356612.762,22.461,35.156,30.762,24.902,-8.301
1642356612.766,24.902,34.668,32.227,25.391,-8.789
1642356612.770,27.832,32.715,28.320,33.203,0.488
1642356612.774,23.926,33.691,28.320,30.273,31.738
1642356612.778,24.902,33.203,32.715,22.461,-6.836
1642356612.781,26.367,34.668,29.297,27.344,5.371
1642356612.785,25.391,35.156,29.785,33.691,68.359
1642356612.789,25.879,33.691,32.715,29.785,46.387
1642356612.793,21.973,35.645,33.691,24.414,-4.883
1642356612.797,24.414,37.598,31.738,29.297,-36.133
1642356612.799,27.344,34.668,30.273,33.203,-43.945
1642356612.803,23.926,33.203,33.203,29.297,-2.930
1642356612.807,23.438,33.691,33.691,24.902,35.645
1642356612.811,21.973,33.203,32.227,22.461,19.043
1642356612.815,23.438,33.203,30.762,27.344,23.926
1642356612.819,21.484,33.203,31.738,25.391,48.828
1642356612.823,19.531,33.203,35.156,20.508,33.203
1642356612.826,27.344,35.156,34.180,24.414,39.062
1642356612.830,27.344,33.691,35.156,26.855,28.320
1642356612.834,27.832,32.227,35.156,27.344,4.395
1642356612.838,23.926,38.086,35.645,21.973,51.758
1642356612.842,20.020,39.062,34.180,20.508,0.000
1642356612.859,16.113,34.180,31.738,11.719,12.695
1642356612.863,9.766,33.203,28.809,-0.488,65.430
1642356612.867,12.207,36.621,24.414,3.906,36.621
1642356612.871,12.207,34.668,27.344,6.348,38.086
1642356612.875,11.719,31.738,28.320,12.207,19.531
1642356612.879,19.043,34.668,25.879,17.578,-15.625
1642356612.883,23.926,34.668,30.762,17.578,41.504
1642356612.886,25.879,34.180,31.738,15.625,74.707
1642356612.890,21.484,36.133,27.344,11.230,23.926
1642356612.894,16.113,34.668,28.320,10.742,-1.465
1642356612.898,16.602,31.250,25.879,11.719,63.477
1642356612.902,21.484,31.738,25.879,15.137,72.266
1642356612.921,25.391,32.227,27.832,18.066,31.738
1642356612.925,22.461,30.762,27.344,17.578,56.641
1642356612.929,20.020,31.738,28.809,20.020,45.898
1642356612.933,23.926,33.203,27.344,25.391,31.250
1642356612.937,23.926,34.180,30.273,20.996,60.059
1642356612.941,24.902,35.645,34.180,20.996,16.113
1642356612.945,25.879,37.109,31.250,26.855,10.742
1642356612.948,23.926,41.992,29.785,30.273,38.086
1642356612.952,25.391,38.086,30.273,27.832,18.555
1642356612.956,24.902,28.320,31.738,24.414,61.523
1642356612.960,20.508,28.320,30.273,21.973,74.219
1642356612.964,22.949,29.785,27.832,22.949,37.109
1642356612.949,28.320,31.738,27.344,24.902,11.719
1642356612.953,32.715,32.715,29.785,20.020,41.992
1642356612.957,27.344,36.133,31.738,16.113,72.266
1642356612.961,23.438,34.668,33.691,18.066,44.922
1642356612.965,30.273,30.273,31.738,21.973,38.086
1642356612.969,26.855,34.668,31.250,20.020,39.551
1642356612.973,17.578,33.691,32.227,12.695,42.480
1642356612.976,15.625,26.367,31.738,12.695,23.438
1642356612.980,19.043,26.367,32.715,21.484,-30.273
1642356612.984,18.555,27.344,30.762,17.578,-23.438
1642356612.988,17.090,25.879,30.273,14.160,13.184
1642356612.992,22.949,29.297,33.691,20.508,62.500
1642356612.995,22.461,31.738,33.691,20.996,122.070
1642356612.999,20.020,32.227,32.715,19.531,51.758
1642356613.003,20.996,32.227,31.250,21.973,-12.695
1642356613.007,24.902,34.668,31.250,26.855,-6.348
1642356613.011,26.855,36.133,30.762,28.809,-7.812
1642356613.015,26.855,30.273,33.203,30.273,-17.090
1642356613.019,21.973,27.832,35.156,21.484,-1.465
1642356613.022,21.484,31.738,31.738,15.137,77.637
1642356613.026,26.855,33.203,32.227,21.973,39.062
1642356613.030,20.020,35.156,31.250,20.020,28.809
1642356613.034,16.113,36.133,28.320,16.113,107.910
1642356613.038,14.648,33.691,30.273,7.812,19.531
1642356613.039,13.184,35.156,29.297,10.254,-55.176
1642356613.043,18.555,38.574,25.879,18.555,11.230
1642356613.047,17.578,34.180,30.273,15.137,57.617
1642356613.051,19.531,29.785,32.715,14.160,24.414
1642356613.055,21.484,32.227,28.320,13.184,31.738
1642356613.059,19.043,32.227,32.715,16.602,73.730
1642356613.063,15.625,33.691,30.273,15.625,70.312
1642356613.066,17.578,35.645,22.461,11.719,21.484
1642356613.070,20.996,35.645,26.855,11.230,-6.348
1642356613.074,19.043,37.598,30.273,10.254,0.977
1642356613.078,21.484,38.086,28.809,15.625,20.020
1642356613.082,26.855,33.203,28.320,20.996,6.836
1642356613.084,30.273,38.574,28.809,21.973,-0.488
1642356613.088,24.902,37.598,28.809,19.531,19.043
1642356613.092,22.461,26.855,32.227,22.461,10.742
1642356613.096,20.996,28.809,29.785,22.461,-14.160
1642356613.100,19.531,31.738,27.832,21.484,-25.879
1642356613.104,20.508,28.809,32.227,21.484,23.438
1642356613.108,23.926,30.762,31.250,27.832,86.914
1642356613.111,31.250,37.109,28.320,34.180,47.852
1642356613.115,32.227,38.086,30.762,28.320,-20.996
1642356613.119,30.273,35.645,33.691,24.902,-21.484
1642356613.123,30.273,36.621,34.668,30.273,37.109
1642356613.127,27.344,38.574,33.691,32.227,31.738
1642356613.130,28.809,36.621,34.180,28.809,29.297
1642356613.134,27.832,33.691,35.645,28.809,52.246
1642356613.138,24.414,33.203,36.133,27.832,-14.160
1642356613.142,25.879,33.203,35.156,28.320,-29.785
1642356613.146,27.832,33.691,29.297,26.367,25.879
1642356613.150,22.949,32.227,30.273,20.020,38.086
1642356613.154,19.043,31.738,32.715,18.555,22.949
1642356613.157,23.438,32.715,31.250,23.926,36.621
1642356613.161,28.320,36.621,30.273,27.344,16.113
1642356613.165,31.738,35.156,27.832,23.438,-3.418
1642356613.169,29.785,31.250,27.832,26.367,-2.930
1642356613.173,20.020,33.203,28.809,23.926,6.836
1642356613.190,21.484,34.668,30.273,20.996,49.316
1642356613.194,28.320,31.250,30.762,23.926,41.992
1642356613.198,23.926,27.344,30.762,20.996,9.766
1642356613.202,21.973,28.809,30.762,22.461,22.949
1642356613.206,24.414,32.227,26.367,22.949,57.129
1642356613.210,19.531,34.668,28.320,16.602,38.574
1642356613.214,21.973,28.809,32.715,14.160,44.434
1642356613.217,29.297,24.902,30.762,19.531,25.391
1642356613.221,30.762,26.855,27.832,22.949,41.504
1642356613.225,28.809,25.879,28.320,19.043,76.660
1642356613.229,24.414,26.855,25.879,18.066,34.668
1642356613.233,29.297,29.785,23.926,27.344,-4.883
1642356613.234,31.738,30.273,25.879,28.320,24.414
1642356613.238,28.809,29.785,28.809,23.438,46.875
1642356613.242,28.809,29.297,32.715,23.926,21.484
1642356613.246,30.762,30.273,32.227,20.508,25.879
1642356613.250,27.832,31.738,32.227,21.484,29.297
1642356613.254,22.949,34.668,34.180,25.391,48.828
1642356613.258,20.996,37.598,31.250,23.438,76.660
1642356613.261,20.996,31.738,25.879,25.391,41.504
1642356613.265,27.344,28.809,26.367,26.367,19.043
1642356613.269,23.438,30.273,28.809,13.184,30.762
1642356613.273,16.113,30.273,31.738,8.789,35.645
1642356613.277,20.508,28.809,30.273,14.160,29.785
1642356613.294,18.555,30.762,29.297,15.137,34.668
1642356613.298,20.020,30.273,32.227,15.137,57.129
1642356613.302,24.414,30.762,30.762,20.020,55.664
1642356613.306,26.367,35.645,31.250,20.996,23.438
1642356613.310,29.785,36.133,37.109,21.973,24.902
1642356613.314,24.902,36.133,35.156,26.855,41.504
1642356613.318,25.879,38.086,32.715,29.785,60.059
1642356613.321,28.320,32.715,35.156,27.344,15.137
1642356613.325,20.508,29.297,34.180,21.484,12.207
1642356613.329,17.578,31.250,33.203,19.531,58.594
1642356613.333,20.996,30.762,32.227,22.461,12.695
1642356613.337,20.508,31.250,29.785,19.043,-42.969
1642356613.324,17.578,30.273,32.715,15.625,29.297
1642356613.328,19.043,31.250,34.180,28.320,87.402
1642356613.332,19.043,35.156,28.809,27.344,20.996
1642356613.336,24.414,36.621,29.785,22.949,42.969
1642356613.340,30.762,34.668,35.156,30.273,45.898
1642356613.344,28.320,37.109,33.203,23.926,13.672
1642356613.348,29.785,36.621,31.738,21.484,50.293
1642356613.351,31.738,30.273,28.809,23.926,48.828
1642356613.355,28.320,29.297,27.832,21.484,52.246
1642356613.359,24.902,30.762,29.297,22.949,12.207
1642356613.363,21.484,29.297,28.809,22.949,-22.461
1642356613.367,21.484,29.785,28.809,25.391,7.812
1642356613.370,20.996,29.297,31.738,21.973,-7.324
1642356613.374,18.066,26.367,33.203,16.602,-24.414
1642356613.378,20.020,29.297,32.227,26.367,16.113
1642356613.382,23.926,30.762,31.738,27.344,66.895
1642356613.386,20.996,31.250,32.715,18.555,44.434
1642356613.390,21.973,32.715,32.227,19.531,23.926
1642356613.394,24.902,34.180,32.715,25.879,47.363
1642356613.397,18.555,32.715,31.250,24.414,-7.812
1642356613.401,19.531,29.785,30.762,23.926,20.996
1642356613.405,16.602,28.809,32.715,20.996,64.453
1642356613.409,15.625,29.297,31.250,21.973,70.312
1642356613.413,22.461,30.762,27.832,26.855,100.586
1642356613.414,19.531,27.832,29.297,18.066,12.695
1642356613.418,20.508,25.879,32.227,18.066,10.254
1642356613.422,21.973,30.762,33.691,24.902,19.043
1642356613.426,20.996,33.203,35.645,24.902,20.020
1642356613.430,21.484,28.320,35.156,26.855,58.105
1642356613.434,14.160,28.320,32.715,28.320,0.000
1642356613.438,11.719,29.297,33.691,15.625,-17.090
1642356613.441,18.066,29.785,33.691,11.719,55.664
1642356613.445,23.438,32.715,33.691,20.020,45.410
1642356613.449,20.996,31.738,33.203,15.625,11.719
1642356613.453,26.855,30.273,32.715,17.578,-1.465
1642356613.457,31.250,32.227,36.133,21.973,-36.621
1642356613.459,22.949,30.762,36.133,20.020,-28.320
1642356613.463,20.508,29.297,33.203,19.531,26.367
1642356613.467,21.484,34.180,31.738,20.020,31.250
1642356613.471,15.137,36.133,28.809,17.090,8.301
1642356613.475,15.137,29.297,26.855,15.137,67.383
1642356613.479,15.625,26.855,28.809,17.578,72.266
1642356613.483,18.555,33.203,27.832,18.555,-8.789
1642356613.486,26.855,35.645,30.273,21.484,-24.414
1642356613.490,22.949,35.645,34.180,19.043,23.438
1642356613.494,27.832,31.250,31.250,20.020,45.410
1642356613.498,31.250,30.273,29.785,21.484,20.996
1642356613.502,24.902,33.691,28.809,18.555,12.207
1642356613.504,18.066,32.227,28.320,19.043,65.430
1642356613.508,14.648,31.738,30.762,21.973,87.402
1642356613.512,9.766,31.738,31.250,15.137,21.973
1642356613.516,9.277,32.715,31.250,12.695,27.344
1642356613.520,11.719,34.180,31.738,17.090,53.223
1642356613.524,10.742,31.738,27.832,14.648,44.922
1642356613.528,14.648,29.785,26.367,11.719,20.508
1642356613.531,16.113,27.832,30.762,13.184,2.441
1642356613.535,13.184,27.832,30.273,15.625,2.930
1642356613.539,13.672,28.809,28.809,20.508,-5.859
1642356613.543,15.137,29.297,27.832,20.996,28.809
1642356613.547,18.555,31.738,26.367,17.090,28.809
1642356613.549,20.996,33.691,24.902,20.996,11.719
1642356613.553,18.555,34.668,27.344,20.508,72.754
1642356613.557,20.508,37.109,28.320,22.461,67.383
1642356613.561,28.320,37.109,26.855,28.809,-0.488
1642356613.565,28.809,32.227,27.832,25.391,14.160
1642356613.569,27.832,28.809,29.785,25.879,49.316
1642356613.573,23.926,29.297,30.273,24.902,69.824
1642356613.576,19.043,29.785,28.809,14.160,50.781
1642356613.580,20.508,29.785,27.344,13.184,13.672
1642356613.584,19.043,29.785,32.715,14.160,16.602
1642356613.588,17.578,30.762,34.668,16.602,37.109
1642356613.592,25.391,34.180,26.855,15.625,40.527
1642356613.595,27.832,34.668,26.367,11.719,17.578
1642356613.599,25.391,34.668,30.273,18.066,27.344
1642356613.603,26.855,35.645,29.785,23.926,6.836
1642356613.607,22.461,34.668,29.297,23.438,15.625
1642356613.611,22.461,34.180,27.832,20.508,-5.859
1642356613.615,26.855,32.227,27.832,16.602,-17.578
1642356613.619,25.879,27.832,31.250,14.648,11.230
1642356613.622,25.879,30.273,29.785,19.043,5.371
1642356613.626,26.855,31.250,28.320,18.066,-13.184
1642356613.630,26.855,29.785,29.785,18.066,30.273
1642356613.634,27.832,33.203,28.809,22.461,91.309
1642356613.638,33.691,32.715,26.855,20.508,102.051
1642356613.654,29.785,32.227,25.879,20.020,63.965
1642356613.658,22.461,31.738,27.832,16.602,-18.555
1642356613.662,22.461,29.297,30.273,16.602,-50.293
1642356613.666,25.879,28.809,30.273,20.996,-17.090
1642356613.670,28.809,30.273,28.809,21.484,47.852
1642356613.674,25.879,33.203,27.832,18.066,6.836
1642356613.678,22.949,35.645,29.297,19.531,8.301
1642356613.681,24.414,35.645,31.250,26.855,35.156
1642356613.685,26.367,29.785,33.691,27.344,21.973
1642356613.689,25.391,29.297,33.691,26.367,16.113
1642356613.693,25.879,32.715,32.715,28.809,14.160
1642356613.697,21.973,31.738,33.691,22.461,31.250
1642356613.699,23.926,34.668,31.738,17.578,-14.160
1642356613.703,31.738,34.180,30.273,21.484,41.992
1642356613.707,27.344,29.785,31.250,16.602,54.688
1642356613.711,24.902,29.297,30.762,19.531,28.320
1642356613.715,29.297,32.715,29.297,21.973,88.867
1642356613.719,29.785,33.203,30.273,15.625,90.820
1642356613.723,28.809,33.691,30.762,14.648,28.809
1642356613.726,31.738,34.668,30.762,16.113,2.930
1642356613.730,37.109,32.227,31.738,22.461,28.809
1642356613.734,38.086,34.180,30.273,20.996,46.875
1642356613.738,31.738,36.133,31.250,10.742,23.926
1642356613.742,30.762,37.109,33.691,12.695,1.465
1642356613.745,30.273,33.203,31.738,18.066,31.250
1642356613.749,27.832,29.785,30.273,20.020,60.547
1642356613.753,28.320,33.203,32.227,21.484,47.363
1642356613.757,25.879,33.691,31.738,23.926,47.852
1642356613.761,21.973,30.762,31.738,23.438,62.012
1642356613.765,23.438,30.273,29.785,21.484,39.551
1642356613.769,24.414,28.320,28.320,20.020,38.574
1642356613.772,25.391,27.344,30.762,21.973,64.941
1642356613.776,29.297,35.156,29.297,25.391,0.000
1642356613.780,26.855,33.203,29.297,20.508,-32.227
1642356613.784,24.414,29.785,28.809,23.438,35.156
1642356613.788,22.949,33.691,28.320,21.973,65.430
1642356613.789,26.367,34.668,28.809,25.879,9.766
1642356613.793,30.762,32.227,28.320,32.227,-13.184
1642356613.797,23.926,30.273,32.227,20.508,28.320
1642356613.801,22.949,31.738,31.738,18.555,41.504
1642356613.805,26.367,32.715,29.785,27.832,-21.484
1642356613.809,26.855,32.715,31.738,32.715,9.277
1642356613.813,28.809,35.156,33.691,32.227,35.156
1642356613.816,27.344,35.156,34.180,27.344,36.621
1642356613.820,32.227,34.180,33.691,29.785,25.391
1642356613.824,29.785,33.691,33.203,35.156,21.484
1642356613.828,23.438,31.738,34.180,31.250,56.152
1642356613.832,25.391,30.762,35.645,24.414,30.762
1642356613.834,26.855,32.227,34.668,25.391,22.461
1642356613.838,21.973,30.273,37.598,23.926,52.246
1642356613.842,28.320,30.273,38.086,28.809,45.898
1642356613.846,27.344,32.715,33.691,29.297,15.137
1642356613.850,18.066,32.227,35.156,20.996,-36.621
1642356613.854,21.973,30.762,36.133,26.367,-17.090
1642356613.858,21.484,27.832,32.227,30.273,33.691
1642356613.861,20.020,28.809,32.227,20.020,16.113
1642356613.865,24.414,31.738,29.785,16.113,4.883
1642356613.869,22.949,30.273,32.227,16.602,-3.418
1642356613.873,21.973,30.273,30.762,16.113,24.902
1642356613.877,21.973,30.273,29.297,19.043,51.270
1642356613.881,22.949,32.227,31.738,20.996,-14.160
1642356613.885,25.391,31.738,29.297,19.043,-42.969
1642356613.889,22.461,26.367,28.809,20.020,-18.555
1642356613.893,20.020,26.367,29.785,15.137,23.926
1642356613.897,22.949,27.344,27.832,11.719,31.738
1642356613.901,23.438,30.273,27.344,14.160,4.395
1642356613.905,21.484,27.832,28.809,17.578,5.859
1642356613.908,28.320,28.809,25.879,22.949,36.133
1642356613.912,30.762,32.227,26.367,17.578,24.414
1642356613.916,27.832,32.227,29.297,10.742,11.230
1642356613.920,28.320,30.762,29.297,15.625,35.645
1642356613.924,28.809,32.227,27.832,22.949,63.477
1642356613.924,28.320,33.691,28.320,23.438,102.051
1642356613.928,21.973,25.879,33.691,18.555,59.082
1642356613.932,21.484,20.996,34.180,16.602,-14.648
1642356613.936,23.438,23.926,32.715,22.461,14.648
1642356613.940,20.020,25.879,32.715,26.367,30.762
1642356613.944,24.902,28.320,29.785,23.926,24.902
1642356613.948,31.250,30.273,27.832,23.926,28.320
1642356613.951,23.926,31.250,29.785,16.113,-1.953
1642356613.955,16.113,30.273,32.227,9.277,2.930
1642356613.959,20.508,23.926,33.203,16.113,26.367
1642356613.963,22.461,25.879,33.203,19.531,-12.207
1642356613.967,19.531,30.762,34.180,20.508,41.504
1642356613.984,23.926,32.227,34.180,26.855,90.332
1642356613.988,26.367,34.180,35.645,24.902,54.688
1642356613.992,22.461,33.691,38.086,23.926,-5.371
1642356613.996,20.508,34.180,29.785,27.832,-18.555
1642356614.000,20.508,35.156,30.762,28.320,59.082
1642356614.004,27.344,35.156,33.691,36.133,33.691
1642356614.008,23.926,31.250,30.273,38.574,-4.395
1642356614.011,15.137,28.320,32.715,25.879,15.137
1642356614.015,19.043,25.879,32.715,20.020,54.199
1642356614.019,22.461,25.879,31.738,26.855,43.945
1642356614.023,18.066,28.320,31.250,20.020,-18.555
1642356614.027,16.602,26.855,31.250,19.043,-21.484
1642356614.045,17.090,27.344,32.715,28.320,0.000
1642356614.049,15.137,27.832,31.738,32.227,67.871
1642356614.053,18.066,28.320,31.738,32.227,62.012
1642356614.057,20.508,31.250,31.738,23.926,36.133
1642356614.061,20.996,30.273,33.691,22.461,36.621
1642356614.065,26.855,33.691,32.715,25.879,11.719
1642356614.069,24.414,30.762,33.691,21.484,48.340
1642356614.072,25.879,26.855,37.109,19.531,-22.949
1642356614.076,31.250,34.180,35.645,23.438,-46.875
1642356614.080,26.855,33.203,32.227,28.320,19.531
1642356614.084,25.879,33.203,31.738,29.297,43.945
1642356614.088,30.273,33.691,36.621,28.809,66.895
1642356614.074,26.855,32.227,35.645,24.414,54.688
1642356614.078,21.484,34.180,33.203,24.414,43.945
1642356614.082,22.949,31.250,31.738,25.879,78.125
1642356614.086,19.531,25.879,32.227,18.555,65.430
1642356614.090,20.508,27.344,31.738,19.531,15.137
1642356614.094,24.414,31.250,29.297,23.926,6.836
1642356614.098,27.832,32.715,29.297,28.320,43.457
1642356614.101,29.297,33.691,27.344,27.344,49.316
1642356614.105,25.391,35.156,27.344,20.996,47.852
1642356614.109,18.555,35.156,28.809,14.160,16.113
1642356614.113,21.973,34.668,27.344,19.531,-26.367
1642356614.117,24.902,32.715,29.785,22.949,-3.906
1642356614.120,24.902,30.273,33.691,21.973,-12.695
1642356614.124,24.902,29.297,32.227,28.809,43.457
1642356614.128,20.020,29.785,29.785,26.855,115.723
1642356614.132,22.949,28.320,29.297,19.531,41.016
1642356614.136,23.438,26.855,29.785,19.043,-2.441
1642356614.140,24.414,32.715,25.879,21.973,-10.254
1642356614.144,23.926,31.250,27.344,24.414,6.836
1642356614.147,25.879,32.715,30.273,29.297,45.898
1642356614.151,25.879,38.574,29.297,26.855,75.684
1642356614.155,21.973,36.133,30.273,19.531,14.160
1642356614.159,25.391,30.273,31.738,20.508,-20.020
1642356614.163,22.461,28.809,28.809,22.949,50.781
1642356614.164,20.020,30.762,29.297,19.043,80.566
1642356614.168,21.973,28.809,31.250,17.578,55.664
1642356614.172,22.949,28.809,30.762,24.414,21.973
1642356614.176,21.973,32.227,29.297,23.926,29.297
1642356614.180,25.879,32.715,28.320,22.461,54.199
1642356614.184,29.785,29.785,29.297,22.461,-0.977
1642356614.188,24.902,34.668,26.367,17.578,-13.672
1642356614.191,23.438,33.691,23.438,19.043,-4.883
1642356614.195,21.484,29.785,27.344,18.066,9.277
1642356614.199,20.996,30.273,27.344,10.254,41.504
1642356614.203,19.043,26.367,26.855,13.184,48.828
1642356614.207,15.137,26.855,28.320,18.555,50.781
1642356614.209,15.137,29.785,29.297,20.508,14.160
1642356614.213,20.508,30.273,31.738,23.438,-13.672
1642356614.217,21.973,32.227,32.227,20.020,-1.953
1642356614.221,20.020,30.762,31.250,18.066,9.766
1642356614.225,23.926,29.785,28.809,20.508,26.855
1642356614.229,21.973,27.832,27.344,19.531,48.340
1642356614.233,22.461,28.809,30.273,18.066,26.367
1642356614.236,23.926,29.297,30.762,20.508,26.367
1642356614.240,26.367,31.738,27.344,22.949,75.684
1642356614.244,28.320,32.227,31.250,24.414,82.520
1642356614.248,28.320,28.320,32.715,21.484,46.387
1642356614.252,29.785,31.250,31.738,13.672,7.324
1642356614.254,38.574,37.109,33.203,17.578,18.066
1642356614.258,41.504,35.645,31.250,21.484,28.320
1642356614.262,34.668,34.180,30.273,14.160,5.859
1642356614.266,23.438,30.273,32.227,16.602,27.344
1642356614.270,14.160,29.785,33.691,24.902,80.566
1642356614.274,15.625,33.203,30.273,31.738,93.262
1642356614.278,14.160,30.762,30.273,22.461,38.086
1642356614.281,15.625,33.691,30.762,12.695,-20.996
1642356614.285,19.043,37.598,31.738,19.531,-8.789
1642356614.289,19.531,33.691,33.203,25.391,5.371
1642356614.293,20.020,28.809,33.691,20.508,21.484
1642356614.297,20.020,26.367,37.109,17.578,9.766
1642356614.299,24.414,31.250,32.227,17.578,-52.246
1642356614.303,19.043,31.738,29.785,12.695,40.527
1642356614.307,19.531,25.879,35.645,19.531,91.797
1642356614.311,25.391,28.809,37.109,20.996,18.555
1642356614.315,24.414,33.203,34.180,21.973,35.645
1642356614.319,26.367,31.250,36.133,25.391,55.664
1642356614.323,27.344,35.645,37.598,21.484,32.227
1642356614.326,34.668,46.875,39.062,23.926,38.574
1642356614.330,31.250,41.016,38.086,18.555,12.207
1642356614.334,23.926,34.668,34.668,14.648,-0.488
1642356614.338,20.020,41.504,31.738,16.113,19.043
1642356614.342,13.672,42.969,36.621,9.277,28.809
1642356614.345,9.277,47.363,42.480,-2.441,72.266
1642356614.349,1.953,53.223,45.898,-13.184,22.461
1642356614.353,-6.348,55.664,52.734,-16.113,10.254
1642356614.357,-4.395,59.570,56.152,-11.230,28.809
1642356614.361,-3.906,61.035,56.641,-18.066,27.832
1642356614.365,-14.648,64.941,60.547,-28.809,29.297
1642356614.369,-24.414,64.941,62.012,-27.832,50.781
1642356614.372,-36.621,65.430,61.035,-28.809,85.938
1642356614.376,-45.898,68.848,61.035,-41.016,40.039
1642356614.380,-43.457,66.895,65.430,-43.457,7.812
1642356614.384,-38.574,62.988,66.895,-34.668,26.367
1642356614.388,-34.180,58.594,58.594,-30.762,3.906
1642356614.404,-25.391,59.570,51.270,-25.879,52.734
1642356614.408,-14.160,60.059,47.852,-17.578,72.754
1642356614.412,-12.695,48.828,42.969,-12.695,41.016
1642356614.416,-6.348,40.039,34.180,-1.465,66.895
1642356614.420,4.395,34.668,29.297,6.836,10.254
1642356614.424,10.254,28.809,26.855,12.207,-19.043
1642356614.428,20.508,29.297,23.926,16.113,-14.648
1642356614.431,28.809,25.391,21.973,20.996,-5.859
1642356614.435,27.832,20.996,20.996,22.461,-24.414
1642356614.439,37.109,22.949,16.113,24.414,14.648
1642356614.443,45.410,21.973,13.672,38.574,14.648
1642356614.447,35.156,19.043,16.602,41.016,15.625
1642356614.449,40.527,18.555,15.625,40.039,57.129
1642356614.453,53.711,19.531,15.625,50.781,17.090
1642356614.457,46.387,16.113,15.625,51.270,-12.695
1642356614.461,49.805,11.719,11.719,48.340,30.273
1642356614.465,56.152,10.254,12.695,53.711,13.184
1642356614.469,44.434,11.719,14.648,51.758,-6.836
1642356614.473,46.875,13.184,13.184,48.828,30.273
1642356614.476,53.711,12.207,12.207,52.734,37.598
1642356614.480,50.293,12.695,16.113,44.434,51.758
1642356614.484,49.805,15.625,20.996,41.992,34.180
1642356614.488,50.293,15.625,16.602,50.781,12.695
1642356614.492,53.711,16.113,13.184,49.805,39.551
1642356614.494,59.082,16.113,17.090,51.270,60.059
1642356614.498,54.199,16.113,20.020,54.688,53.223
1642356614.502,55.664,16.602,21.973,51.270,-1.465
1642356614.506,58.105,18.555,20.020,50.781,6.836
1642356614.510,54.199,20.020,20.508,50.781,61.035
1642356614.514,48.828,16.602,22.461,48.340,56.641
1642356614.518,49.805,17.578,20.020,49.805,46.387
1642356614.521,51.758,23.926,20.996,48.340,8.301
1642356614.525,49.316,21.973,25.391,41.992,32.227
1642356614.529,48.828,18.066,23.438,42.969,63.965
1642356614.533,41.504,21.484,23.926,44.922,34.180
1642356614.537,41.016,21.973,25.391,41.992,64.941
1642356614.539,53.223,22.461,25.879,44.922,79.590
1642356614.543,45.410,25.879,26.855,42.969,54.199
1642356614.547,34.180,23.926,26.367,31.250,30.273
1642356614.551,34.668,23.926,26.855,28.320,28.809
1642356614.555,37.109,29.785,28.809,32.227,-11.719
1642356614.559,37.598,32.715,26.367,33.691,-35.645
1642356614.563,34.668,27.344,25.391,33.203,6.836
1642356614.566,36.133,21.973,28.320,32.227,20.996
1642356614.570,39.062,23.926,27.344,33.691,-35.645
1642356614.574,34.180,26.855,28.809,31.738,-24.414
1642356614.578,33.203,28.809,24.902,30.762,50.781
1642356614.582,35.156,26.855,23.926,24.902,37.109
1642356614.585,35.156,25.391,30.762,25.391,0.000
1642356614.589,38.574,29.785,33.691,35.156,-21.973
1642356614.593,35.645,30.273,30.273,39.062,18.555
1642356614.597,30.762,26.367,25.391,29.785,34.180
1642356614.601,30.273,25.391,25.879,24.902,11.719
1642356614.605,29.297,27.344,29.785,27.832,50.781
1642356614.609,28.320,26.367,30.762,29.297,48.828
1642356614.612,31.250,29.297,30.273,34.668,21.973
1642356614.616,27.832,29.297,29.785,27.832,7.812
1642356614.620,25.391,23.926,27.832,22.949,-18.066
1642356614.624,27.832,24.414,30.762,20.996,5.859
1642356614.628,37.109,28.320,28.320,27.832,5.859
1642356614.630,41.016,27.344,27.832,31.738,11.230
1642356614.634,27.832,23.926,31.250,25.391,36.621
1642356614.638,21.484,23.926,28.809,27.344,47.363
1642356614.642,26.367,25.879,25.879,30.273,29.785
1642356614.646,26.367,24.414,29.297,27.344,16.113
1642356614.650,25.879,26.367,31.738,24.902,10.742
1642356614.654,28.809,31.738,28.320,30.762,-13.184
1642356614.657,23.926,30.273,29.297,31.250,40.527
1642356614.661,17.578,27.344,31.250,21.973,56.152
1642356614.665,20.020,29.785,28.809,21.484,24.902
1642356614.669,19.531,26.367,28.320,24.414,39.551
1642356614.673,22.949,26.367,30.762,29.785,53.223
1642356614.674,26.855,31.250,33.691,28.320,50.781
1642356614.678,29.785,34.180,32.715,25.879,19.531
1642356614.682,29.785,33.691,33.203,21.973,30.273
1642356614.686,32.715,31.738,32.715,29.297,43.457
1642356614.690,36.133,35.645,29.785,41.504,79.102
1642356614.694,33.203,36.133,32.227,33.203,54.199
1642356614.698,29.297,33.203,34.668,31.738,36.133
1642356614.701,25.391,29.785,34.668,30.762,39.551
1642356614.705,23.438,29.297,32.227,32.227,3.418
1642356614.709,23.926,30.762,29.785,29.297,21.484
1642356614.713,23.926,29.297,31.250,18.555,-4.395
1642356614.717,27.832,30.762,31.738,18.555,-9.277
1642356614.735,26.367,31.738,32.227,21.973,28.320
1642356614.739,24.902,31.738,31.250,23.926,35.645
1642356614.743,29.785,33.203,30.273,22.949,18.555
1642356614.747,25.879,36.133,30.762,21.973,20.508
1642356614.751,25.391,34.668,30.762,31.738,81.543
1642356614.755,22.949,27.344,33.691,33.691,51.270
1642356614.759,20.996,29.297,33.203,22.949,-5.859
1642356614.762,20.996,32.227,33.203,22.461,42.480
1642356614.766,24.414,31.250,32.715,19.531,14.648
1642356614.770,25.879,34.180,28.320,17.090,26.367
1642356614.774,22.461,33.203,31.250,18.555,50.781
1642356614.778,22.461,30.273,34.668,18.066,-2.930
1642356614.779,24.414,32.715,34.180,22.949,21.973
1642356614.783,21.484,35.645,34.180,24.902,47.852
1642356614.787,25.391,33.203,32.227,22.461,2.441
1642356614.791,26.367,31.250,30.273,23.926,-8.789
1642356614.795,20.508,33.203,31.250,23.438,48.828
1642356614.799,26.367,34.668,28.809,28.809,44.434
1642356614.803,30.273,33.203,32.715,28.809,20.020
1642356614.806,26.367,32.227,33.691,33.203,26.855
1642356614.810,29.297,34.668,31.250,36.133,45.898
1642356614.814,34.668,33.691,32.715,27.344,66.406
1642356614.818,30.273,34.180,33.691,23.926,46.875
1642356614.822,21.973,35.156,34.180,19.531,34.668
1642356614.825,21.973,32.227,35.645,18.555,14.648
1642356614.829,23.926,32.227,35.156,24.414,18.066
1642356614.833,21.973,29.297,34.180,27.832,20.020
1642356614.837,27.344,27.832,33.691,27.832,86.426
1642356614.841,26.855,30.762,32.715,26.855,77.637
1642356614.845,26.367,30.273,34.180,25.391,6.348
1642356614.849,33.203,30.762,32.227,27.832,29.297
1642356614.852,24.902,30.762,32.715,29.785,37.598
1642356614.856,18.555,34.180,34.180,25.879,-20.996
1642356614.860,29.297,41.504,30.762,21.973,-41.504
1642356614.864,27.344,40.039,30.273,25.391,15.625
1642356614.868,25.391,36.621,29.785,25.879,22.949
1642356614.870,37.109,35.156,28.320,25.879,16.602
1642356614.874,31.738,35.156,31.250,27.344,30.273
1642356614.878,26.855,34.668,33.691,24.414,66.406
1642356614.882,34.180,33.203,33.203,26.855,116.699
1642356614.886,34.180,32.227,35.645,26.855,75.195
1642356614.890,30.273,31.250,36.621,23.926,51.270
1642356614.894,26.367,35.156,35.645,27.344,28.320
1642356614.897,27.344,35.156,35.645,31.738,38.086
1642356614.901,24.902,30.273,36.621,19.531,63.965
1642356614.905,21.973,30.762,36.133,14.160,16.113
1642356614.909,25.391,33.203,34.668,26.855,-11.230
1642356614.913,28.809,34.180,35.156,28.809,7.324
1642356614.914,29.297,35.156,34.180,20.996,45.898
1642356614.918,24.902,31.738,34.668,17.578,46.875
1642356614.922,23.438,30.273,34.668,22.949,61.035
1642356614.926,29.297,36.621,32.227,24.902,50.781
1642356614.930,28.320,38.086,34.180,21.484,23.438
1642356614.934,28.320,34.180,38.086,23.438,23.438
1642356614.938,24.414,29.785,36.133,20.508,59.082
1642356614.941,23.926,28.320,33.203,16.113,35.156
1642356614.945,29.785,30.273,33.203,20.020,-24.902
1642356614.949,28.320,30.762,33.691,21.973,-55.664
1642356614.953,27.832,33.203,31.250,20.020,-0.488
1642356614.957,30.273,35.645,30.762,24.902,62.012
1642356614.959,31.738,36.133,33.691,29.297,40.527
1642356614.963,31.738,37.109,35.645,25.391,31.738
1642356614.967,22.949,37.109,35.645,19.043,16.113
1642356614.971,25.879,41.016,33.203,24.414,40.039
1642356614.975,28.320,37.109,34.668,27.832,45.410
1642356614.979,23.926,31.738,35.645,26.367,3.418
1642356614.983,27.832,30.762,33.691,24.414,-25.879
1642356614.986,40.527,29.785,33.691,28.320,8.301
1642356614.990,31.250,32.227,37.598,27.344,91.309
1642356614.994,18.066,33.691,36.621,16.602,38.086
1642356614.998,27.832,36.621,33.203,18.066,11.719
1642356615.002,23.438,36.621,36.133,14.648,22.461
1642356615.005,12.207,35.645,36.133,11.719,-12.207
1642356615.009,16.113,34.668,34.668,12.695,18.066
1642356615.013,13.184,34.668,33.691,10.254,52.246
1642356615.017,14.160,34.180,31.250,10.254,37.109
1642356615.021,20.508,31.250,31.250,12.695,23.438
1642356615.025,24.414,29.785,33.203,17.578,28.809
1642356615.029,33.203,30.762,32.227,16.602,19.043
1642356615.032,26.855,31.250,34.180,9.766,-1.953
1642356615.036,19.531,27.832,36.133,9.766,-24.414
1642356615.040,26.855,25.391,35.645,18.555,10.254
1642356615.044,23.926,27.832,36.133,16.602,12.695
1642356615.048,23.438,30.273,33.691,19.531,-0.977
1642356615.050,31.250,27.832,33.203,27.832,28.809
1642356615.054,25.391,25.879,34.180,21.484,40.527
1642356615.058,17.578,26.367,36.621,17.578,60.547
1642356615.062,21.484,27.832,39.062,21.484,40.527
1642356615.066,23.438,28.320,36.621,20.508,27.832
1642356615.070,19.531,28.809,34.180,17.090,18.066
1642356615.074,21.484,30.762,34.180,15.625,0.000
1642356615.077,22.949,32.227,34.180,13.672,12.207
1642356615.081,18.555,30.273,37.109,14.160,0.000
1642356615.085,20.996,27.344,37.109,18.555,46.875
1642356615.089,22.949,35.156,35.645,20.020,81.543
1642356615.093,24.414,39.062,34.180,21.973,43.945
1642356615.109,23.926,32.715,32.715,20.508,6.348
1642356615.113,18.555,32.227,32.715,16.113,39.551
1642356615.117,21.973,33.203,32.227,18.555,74.219
1642356615.121,23.926,33.203,33.203,15.625,63.477
1642356615.125,19.043,34.180,32.227,7.812,58.105
1642356615.129,23.438,34.668,32.227,18.066,41.504
1642356615.133,31.250,34.668,34.180,22.461,51.758
1642356615.136,25.879,33.691,32.227,14.648,41.504
1642356615.140,24.902,33.691,30.762,19.531,29.785
1642356615.144,31.250,39.062,30.273,25.391,20.020
1642356615.148,30.762,36.133,29.785,25.879,32.715
1642356615.152,25.879,31.738,28.320,21.484,38.086
1642356615.154,25.879,35.156,26.367,23.438,18.066
1642356615.158,25.391,32.715,32.715,19.531,10.742
1642356615.162,21.973,33.203,36.133,13.184,5.371
1642356615.166,26.367,33.691,34.180,21.484,16.602
1642356615.170,34.668,32.227,32.227,26.855,-15.625
1642356615.174,29.297,34.180,32.227,23.926,5.859
1642356615.178,24.902,33.691,33.691,20.020,25.391
1642356615.181,28.809,33.203,33.691,26.367,10.254
1642356615.185,25.391,31.250,32.227,29.297,40.527
1642356615.189,23.438,31.738,34.180,22.949,28.809
1642356615.193,20.020,31.738,34.180,14.648,23.926
1642356615.197,25.879,28.809,30.273,22.949,64.941
1642356615.199,27.344,31.250,31.250,25.391,59.082
1642356615.203,19.531,33.203,32.715,21.973,35.156
1642356615.207,23.926,35.156,33.691,25.879,44.922
1642356615.211,24.902,35.156,36.621,21.484,34.180
1642356615.215,24.902,30.273,36.621,20.508,24.902
1642356615.219,26.367,28.320,36.133,22.461,-24.902
1642356615.223,22.949,31.738,33.203,19.531,27.832
1642356615.226,23.926,33.691,31.250,22.461,43.457
1642356615.230,22.461,30.273,33.203,21.484,14.648
1642356615.234,14.160,28.809,32.715,16.602,16.113
1642356615.238,11.230,30.273,31.738,20.020,14.160
1642356615.242,12.207,31.250,32.227,21.973,15.137
1642356615.244,8.789,31.738,31.738,22.949,31.738
1642356615.248,7.812,31.738,30.273,20.508,49.316
1642356615.252,14.648,29.785,29.785,23.438,-6.348
1642356615.256,21.973,29.297,30.273,33.203,-16.602
1642356615.260,21.484,28.809,34.180,32.715,19.531
1642356615.264,19.531,28.320,34.180,28.809,19.043
1642356615.268,20.508,30.762,32.227,24.414,20.996
1642356615.271,20.508,31.250,33.691,18.066,23.926
1642356615.275,17.578,30.762,33.203,13.184,23.438
1642356615.279,14.160,29.297,36.133,15.625,10.742
1642356615.283,21.973,34.668,39.062,23.438,52.246
1642356615.287,26.367,35.645,37.598,20.508,53.223
1642356615.291,23.438,30.273,34.668,18.066,36.621
1642356615.295,23.926,30.762,30.273,21.973,45.898
1642356615.299,23.926,27.344,31.250,17.090,-15.137
1642356615.303,22.461,22.461,32.715,18.066,-33.203
1642356615.307,20.020,25.879,32.715,20.508,21.484
1642356615.311,21.973,28.809,36.133,18.066,23.926
1642356615.315,27.344,25.391,33.691,17.578,33.691
1642356615.318,33.203,29.297,31.738,19.531,54.199
1642356615.322,30.273,37.109,36.133,17.578,14.160
1642356615.326,18.555,36.621,36.133,13.184,11.230
1642356615.330,11.230,32.227,38.086,10.742,62.012
1642356615.334,12.207,29.297,38.574,8.789,41.016
1642356615.335,15.625,30.273,34.668,14.160,-1.465
1642356615.339,18.066,30.762,37.109,25.879,33.691
1642356615.343,18.066,33.203,32.227,30.273,75.684
1642356615.347,20.508,31.250,31.250,26.855,33.691
1642356615.351,25.879,25.879,37.109,27.832,11.230
1642356615.355,29.785,33.203,33.203,28.809,26.367
1642356615.359,27.344,37.109,32.715,22.949,14.648
1642356615.362,27.344,29.297,34.668,20.020,3.418
1642356615.366,30.273,27.832,36.133,23.438,-3.906
1642356615.370,22.949,31.250,35.156,21.484,47.363
1642356615.374,22.949,34.180,32.227,19.043,38.086
1642356615.378,25.391,30.762,32.715,21.973,15.137
1642356615.379,22.461,30.762,29.785,26.855,43.945
1642356615.383,22.949,33.203,28.320,28.320,48.828
1642356615.387,20.020,33.691,27.832,22.949,47.363
1642356615.391,19.043,33.691,27.832,18.555,63.477
1642356615.395,26.855,32.227,28.809,18.066,20.020
1642356615.399,30.273,33.203,30.762,20.508,15.625
1642356615.403,27.344,28.809,31.250,20.996,30.273
1642356615.406,22.949,24.902,28.809,19.043,26.855
1642356615.410,21.973,28.320,29.297,20.508,44.434
1642356615.414,23.438,27.832,29.297,21.973,31.738
1642356615.418,26.367,30.273,29.297,23.438,47.852
1642356615.422,19.043,31.250,32.715,24.902,58.594
1642356615.424,14.648,26.855,33.203,23.438,35.645
1642356615.428,19.531,28.809,30.762,24.414,19.043
1642356615.432,19.043,29.785,31.738,25.391,56.641
1642356615.436,15.137,27.344,31.250,24.902,68.359
1642356615.440,22.461,27.344,27.344,25.391,20.020
1642356615.444,24.902,26.367,28.809,27.344,25.879
1642356615.448,17.578,26.855,32.715,22.949,14.160
1642356615.451,20.020,31.250,30.273,25.879,20.020
1642356615.455,20.996,31.250,28.809,32.715,96.680
1642356615.459,23.438,28.320,28.809,28.809,22.461
1642356615.463,29.785,29.785,33.203,20.020,-23.926
1642356615.467,20.020,32.715,31.250,17.578,35.645
1642356615.485,15.625,29.297,24.902,21.973,48.340
1642356615.489,21.484,26.367,28.809,22.461,37.598
1642356615.493,24.902,30.273,29.785,23.926,9.277
1642356615.497,28.809,31.738,29.297,31.250,-6.348
1642356615.501,28.809,30.762,31.250,32.227,20.508
1642356615.505,28.809,30.273,33.691,30.762,32.227
1642356615.509,26.855,30.273,37.109,26.855,-27.344
1642356615.512,27.344,34.668,36.133,27.832,19.043
1642356615.516,31.738,38.086,34.668,37.598,42.969
1642356615.520,32.227,37.109,35.156,38.086,10.254
1642356615.524,31.250,37.109,33.691,28.320,13.672
1642356615.528,26.367,32.227,36.621,21.484,33.203
1642356615.544,22.461,32.227,37.598,22.461,56.641
1642356615.548,31.250,40.039,31.738,25.879,44.922
1642356615.552,31.250,37.109,31.738,28.320,6.836
1642356615.556,24.414,30.273,34.180,28.320,41.992
1642356615.560,25.879,31.738,33.691,28.809,37.598
1642356615.564,29.297,35.645,32.715,30.762,-2.930
1642356615.568,29.297,35.645,32.227,20.508,20.020
1642356615.571,28.809,33.691,28.809,22.949,12.695
1642356615.575,28.809,31.738,31.738,25.879,-7.324
1642356615.579,23.438,33.691,35.156,9.766,40.039
1642356615.583,22.949,34.180,31.738,9.766,28.809
1642356615.587,23.926,30.762,32.227,16.602,30.762
1642356615.574,19.531,33.203,32.227,18.066,38.574
1642356615.578,22.461,35.645,32.715,20.996,23.438
1642356615.582,29.785,34.180,34.668,30.273,42.480
1642356615.586,28.809,35.156,34.180,27.832,77.637
1642356615.590,21.973,35.645,33.203,17.578,47.852
1642356615.594,20.996,34.668,31.250,18.555,-10.254
1642356615.598,20.508,33.203,31.250,23.926,19.531
1642356615.601,16.113,31.250,35.156,20.508,59.570
1642356615.605,20.996,34.180,34.668,21.484,47.852
1642356615.609,22.949,36.621,32.715,23.438,74.707
1642356615.613,19.531,32.227,35.156,25.391,78.125
1642356615.617,23.926,34.668,35.645,25.879,48.340
1642356615.619,29.297,36.621,33.203,23.926,8.301
1642356615.623,24.414,32.227,29.785,16.113,-22.949
1642356615.627,19.531,32.715,33.203,19.043,-5.859
1642356615.631,23.926,33.203,33.203,30.762,14.648
1642356615.635,25.391,32.227,28.320,25.391,4.395
1642356615.639,29.297,31.250,29.785,25.391,46.387
1642356615.643,31.250,34.180,31.250,29.785,76.660
1642356615.646,28.320,34.668,30.762,25.391,64.941
1642356615.650,28.320,32.715,29.297,21.484,54.688
1642356615.654,28.320,36.133,30.762,22.949,25.391
1642356615.658,29.297,36.621,30.762,28.320,-6.348
1642356615.662,28.809,34.180,27.344,28.809,35.156
1642356615.664,26.367,33.203,28.320,23.438,52.246
1642356615.668,30.762,29.785,31.250,20.020,13.184
1642356615.672,30.273,33.691,30.762,22.461,25.391
1642356615.676,21.484,36.133,31.738,21.484,61.523
1642356615.680,21.484,33.691,35.645,22.461,56.641
1642356615.684,24.414,34.180,33.203,20.508,38.086
1642356615.688,27.832,35.156,31.250,17.578,19.531
1642356615.691,25.879,30.762,33.203,19.531,-36.133
1642356615.695,24.902,29.785,33.691,19.531,-32.715
1642356615.699,29.785,30.762,34.180,25.879,30.762
1642356615.703,28.320,30.273,34.180,28.320,51.758
1642356615.707,30.762,32.715,32.715,29.785,42.969
1642356615.709,31.738,31.738,34.180,31.250,54.688
1642356615.713,24.414,28.320,33.203,24.902,18.066
1642356615.717,24.414,29.297,27.344,22.949,-31.250
1642356615.721,22.949,33.203,27.832,23.926,-23.926
1642356615.725,16.113,36.621,27.832,23.438,16.602
1642356615.729,17.578,34.180,24.414,20.508,4.395
1642356615.733,20.020,30.762,26.367,16.602,-32.227
1642356615.736,23.438,33.691,28.809,14.160,14.648
1642356615.740,28.809,36.133,26.367,19.531,41.992
1642356615.744,29.297,33.691,26.367,27.344,18.066
1642356615.748,20.020,31.738,28.320,17.578,29.297
1642356615.752,16.602,30.762,31.250,12.695,44.434
1642356615.755,22.461,31.250,32.715,21.973,5.371
1642356615.759,20.996,33.691,29.785,23.438,9.277
1642356615.763,25.391,36.133,29.297,19.531,23.926
1642356615.767,31.250,35.156,30.762,23.926,9.277
1642356615.771,23.438,33.203,31.738,27.344,29.297
1642356615.775,22.461,34.180,33.691,23.926,15.625
1642356615.779,29.785,33.203,35.156,21.484,-22.949
1642356615.782,22.949,28.320,34.180,15.625,1.465
1642356615.786,13.672,25.879,34.180,14.160,26.855
1642356615.790,12.695,26.855,33.203,20.996,75.684
1642356615.794,13.184,26.855,33.203,21.973,71.289
1642356615.798,17.090,34.180,30.762,19.043,20.996
1642356615.799,21.973,36.133,32.227,20.996,51.270
1642356615.803,21.484,28.809,35.645,21.973,37.598
1642356615.807,22.949,30.762,34.180,15.137,25.391
1642356615.811,24.902,32.227,34.180,14.160,44.922
1642356615.815,25.391,32.227,36.133,19.043,20.020
1642356615.819,27.832,33.691,36.133,20.996,52.734
1642356615.823,26.855,28.809,34.668,20.996,54.199
1642356615.826,22.949,27.832,35.156,15.137,29.297
1642356615.830,20.996,30.762,36.133,15.625,12.695
1642356615.834,18.066,30.273,35.645,20.020,20.508
1642356615.838,12.695,29.785,31.250,15.137,40.527
1642356615.842,12.695,28.809,32.227,11.230,31.738
1642356615.860,12.695,28.320,37.109,11.230,47.852
1642356615.864,12.207,30.273,35.645,12.207,-7.812
1642356615.868,18.066,32.715,34.180,16.602,20.996
1642356615.872,20.020,30.762,36.133,18.555,78.613
1642356615.876,16.113,28.320,35.645,14.648,83.984
1642356615.880,19.531,29.297,33.203,14.160,-3.906
1642356615.884,20.508,33.203,29.785,13.184,-49.316
1642356615.887,18.555,33.691,29.297,12.695,21.484
1642356615.891,23.438,32.227,29.297,13.184,23.438
1642356615.895,21.484,29.297,31.738,10.742,53.223
1642356615.899,11.719,25.391,30.762,10.742,40.527
1642356615.903,16.602,25.391,27.832,18.066,4.395
1642356615.905,19.531,24.902,31.250,19.531,-3.418
1642356615.909,14.648,22.461,33.691,16.113,7.324
1642356615.913,13.672,27.832,30.762,20.996,25.391
1642356615.917,15.625,30.273,30.273,20.020,27.832
1642356615.921,20.020,28.320,33.203,16.113,26.367
1642356615.925,22.461,33.691,32.227,16.113,79.590
1642356615.929,24.902,36.133,30.762,16.113,21.484
1642356615.932,27.832,30.273,31.738,20.508,-3.906
1642356615.936,26.367,29.297,32.227,24.414,29.297
1642356615.940,37.598,29.785,30.273,26.367,20.996
1642356615.944,42.969,29.785,32.715,25.391,22.949
1642356615.948,24.902,30.762,36.133,22.461,1.953
1642356615.949,16.602,32.227,35.156,12.695,16.602
1642356615.953,17.090,36.133,35.156,8.789,16.113
1642356615.957,24.902,32.715,33.691,14.648,-4.883
1642356615.961,25.879,28.809,32.227,16.602,3.418
1642356615.965,15.625,28.809,35.156,15.625,39.062
1642356615.969,15.625,28.809,32.227,15.625,58.105
1642356615.973,24.414,30.762,30.273,15.137,29.297
1642356615.976,21.484,29.297,31.738,14.648,41.992
1642356615.980,19.531,31.738,29.785,20.996,77.637
1642356615.984,20.996,30.273,32.227,20.020,62.500
1642356615.988,23.926,29.785,30.762,20.996,20.996
1642356615.992,32.227,37.598,27.344,27.344,-24.902
1642356615.994,27.832,35.645,31.738,27.832,-4.395
1642356615.998,21.973,30.273,30.762,24.414,14.648
1642356616.002,24.902,31.250,24.902,23.926,14.160
1642356616.006,25.879,31.250,25.879,20.996,31.250
1642356616.010,25.879,32.715,27.832,24.414,6.348
1642356616.014,25.879,30.762,29.297,23.438,8.789
1642356616.018,24.902,28.320,30.762,15.625,41.016
1642356616.021,25.879,28.809,32.715,18.066,25.391
1642356616.025,27.344,29.297,32.227,26.367,48.340
1642356616.029,20.020,25.879,33.691,23.438,74.707
1642356616.033,17.090,24.414,32.227,19.043,35.156
1642356616.037,23.438,26.367,31.250,20.020,-0.488
1642356616.039,20.996,27.344,33.203,24.414,-6.348
1642356616.043,18.066,28.809,34.668,28.320,12.207
1642356616.047,20.508,28.320,35.645,22.461,38.574
1642356616.051,23.926,31.250,33.691,23.926,65.430
1642356616.055,29.297,33.203,32.227,27.832,34.668
1642356616.059,28.320,31.738,31.250,22.949,10.254
1642356616.063,31.738,31.738,26.855,20.508,60.059
1642356616.066,27.832,27.344,26.367,21.484,29.785
1642356616.070,20.996,29.297,28.809,17.578,-5.371
1642356616.074,29.297,36.133,30.273,21.973,43.945
1642356616.078,27.344,38.086,31.250,25.879,84.473
1642356616.082,23.438,38.086,32.227,25.391,88.867
1642356616.084,30.273,38.086,31.738,23.438,28.320
1642356616.088,29.297,41.016,28.809,19.043,37.109
1642356616.092,28.809,38.574,27.832,22.461,47.363
1642356616.096,35.156,32.227,28.320,28.809,43.457
1642356616.100,30.273,32.715,31.250,18.066,24.902
1642356616.104,28.809,34.180,32.715,11.230,-1.953
1642356616.108,31.250,34.668,30.762,17.090,-5.859
1642356616.111,34.180,37.109,28.809,21.484,12.207
1642356616.115,32.715,37.109,29.785,17.090,-3.906
1642356616.119,26.367,37.109,29.297,16.113,-37.598
1642356616.123,29.297,34.668,29.297,27.832,0.488
1642356616.127,30.762,30.762,28.809,28.320,42.480
1642356616.129,24.902,32.715,27.832,19.531,2.930
1642356616.133,26.367,31.738,31.250,24.902,-37.598
1642356616.137,28.320,33.691,29.785,28.320,-20.508
1642356616.141,27.344,34.180,28.320,24.414,-2.930
1642356616.145,22.949,29.297,31.738,20.508,36.621
1642356616.149,24.414,32.227,32.715,21.973,12.207
1642356616.153,24.414,36.133,33.691,19.043,18.555
1642356616.156,18.555,33.691,34.180,11.719,25.391
1642356616.160,18.066,27.344,34.668,16.602,22.461
1642356616.164,22.461,27.832,35.645,20.996,5.371
1642356616.168,23.926,28.809,33.691,20.996,-5.371
1642356616.172,21.973,28.320,33.203,25.879,34.180
1642356616.174,23.438,28.809,35.645,30.762,46.875
1642356616.178,28.320,31.250,34.180,27.344,41.016
1642356616.182,27.344,32.715,33.203,22.461,12.207
1642356616.186,31.250,28.320,35.645,29.785,10.742
1642356616.190,34.668,28.320,35.156,36.621,78.613
1642356616.194,27.344,30.273,31.738,27.344,47.363
1642356616.198,22.949,29.785,31.250,15.137,15.137
1642356616.201,24.902,28.320,32.715,20.996,22.461
1642356616.205,25.391,31.738,30.273,26.855,13.672
1642356616.209,27.832,34.668,31.250,25.391,-5.859
1642356616.213,33.203,35.156,33.691,30.762,2.930
1642356616.217,35.156,37.598,35.156,34.668,47.363
1642356616.224,35.156,36.621,33.691,40.039,88.867
1642356616.228,31.738,35.156,31.738,33.203,57.617
1642356616.232,25.879,33.691,33.691,19.043,36.621
1642356616.236,22.461,27.832,36.621,20.996,76.660
1642356616.240,18.555,28.320,33.691,19.531,20.508
1642356616.244,19.531,30.273,31.738,19.043,2.930
1642356616.248,23.438,31.250,32.715,22.949,46.387
1642356616.251,22.461,32.715,32.227,22.949,50.293
1642356616.255,20.508,36.621,31.250,26.855,25.879
1642356616.259,20.996,37.109,28.809,30.273,52.734
1642356616.263,26.855,30.273,30.762,24.902,39.551
1642356616.267,25.879,29.785,31.250,25.879,14.648
1642356616.281,22.461,34.180,28.320,32.227,53.711
1642356616.285,21.973,32.227,31.250,30.762,24.902
1642356616.289,18.066,29.297,33.691,24.414,1.465
1642356616.293,20.996,30.273,31.738,27.344,16.602
1642356616.297,28.809,32.715,29.785,33.691,21.484
1642356616.301,23.926,35.645,31.250,24.902,25.391
1642356616.305,20.508,33.691,30.273,19.531,-16.113
1642356616.308,31.738,29.297,28.320,24.902,6.836
1642356616.312,31.738,30.273,31.250,25.879,-16.602
1642356616.316,21.484,32.227,31.250,27.344,-8.301
1642356616.320,24.414,32.715,31.738,30.273,57.617
1642356616.324,23.926,32.715,29.785,22.949,-1.465
1642356616.324,17.578,28.320,28.809,18.066,-39.551
1642356616.328,20.996,29.297,32.227,24.414,36.621
1642356616.332,23.438,35.156,33.203,26.367,75.684
1642356616.336,24.414,33.691,30.762,22.461,37.109
1642356616.340,26.367,29.785,28.809,20.996,40.039
1642356616.344,23.438,30.762,31.250,19.531,70.801
1642356616.348,26.367,34.180,31.738,25.879,63.477
1642356616.351,32.227,31.250,32.715,29.785,61.523
1642356616.355,30.273,32.227,31.738,22.461,34.180
1642356616.359,28.320,34.668,34.668,17.090,19.531
1642356616.363,34.180,31.250,37.109,25.879,43.945
1642356616.367,28.809,35.156,34.668,20.996,28.320
1642356616.369,30.762,43.457,37.598,20.996,42.480
1642356616.373,35.156,38.086,43.945,31.738,108.398
1642356616.377,18.555,33.203,39.551,18.555,40.039
1642356616.381,9.766,46.387,41.992,7.812,-9.766
1642356616.385,9.277,49.805,45.898,8.301,23.438
1642356616.389,5.371,47.363,42.969,2.930,5.371
1642356616.393,-0.488,47.852,47.852,0.488,15.137
1642356616.396,-0.977,51.758,50.781,3.906,16.602
1642356616.400,-5.371,57.617,54.688,-12.695,35.645
1642356616.404,-20.020,62.988,59.570,-33.203,21.484
1642356616.408,-31.738,66.406,60.059,-35.156,-4.883
1642356616.412,-36.133,69.824,59.082,-34.180,37.598
1642356616.414,-40.527,69.824,64.453,-38.574,11.719
1642356616.418,-43.457,61.035,66.406,-38.574,-27.344
1642356616.422,-30.762,56.152,62.012,-31.250,1.953
1642356616.426,-19.043,51.270,59.082,-21.484,18.066
1642356616.430,-13.672,45.898,55.176,-14.160,26.367
1642356616.434,-12.207,44.922,49.316,-11.230,34.180
1642356616.438,-9.277,36.621,45.898,-6.348,1.953
1642356616.441,0.977,34.180,39.551,0.000,30.273
1642356616.445,2.441,30.762,37.109,8.789,90.332
1642356616.449,8.789,24.414,37.109,14.648,26.855
1642356616.453,23.926,23.438,29.297,30.273,29.785
1642356616.457,24.902,22.949,24.902,37.109,33.203
1642356616.459,25.391,24.902,25.391,32.715,13.184
1642356616.463,31.250,20.508,25.879,34.180,24.902
1642356616.467,39.062,15.625,21.484,31.250,4.395
1642356616.471,35.156,13.672,18.555,25.391,-13.184
1642356616.475,25.391,9.766,19.043,23.438,-27.344
1642356616.479,36.133,12.695,17.090,34.668,23.438
1642356616.483,39.551,12.207,14.648,36.621,39.062
1642356616.486,39.062,9.766,11.230,38.086,10.742
1642356616.490,38.574,11.230,11.230,40.039,4.883
1642356616.494,42.480,14.648,12.207,40.039,54.688
1642356616.498,50.781,18.066,10.254,42.480,26.367
1642356616.502,50.293,13.672,7.812,40.039,-5.371
1642356616.506,51.758,12.695,8.789,44.922,51.270
1642356616.510,46.387,17.090,11.719,46.875,70.801
1642356616.514,43.457,15.137,12.695,45.898,21.973
1642356616.518,45.898,13.672,14.160,43.945,-35.156
1642356616.522,47.363,18.555,17.090,41.992,6.348
1642356616.526,45.898,20.020,21.973,46.875,52.246
1642356616.530,43.457,19.531,22.461,42.969,72.266
1642356616.533,42.969,17.578,19.531,26.367,49.316
1642356616.537,46.387,15.625,19.531,31.250,30.273
1642356616.541,49.316,15.625,20.508,34.668,35.645
1642356616.545,45.410,20.020,17.090,40.527,-2.930
1642356616.549,45.898,23.438,16.113,44.922,1.953
1642356616.549,48.828,21.484,21.973,39.551,25.879
1642356616.553,47.852,19.043,24.414,48.828,6.836
1642356616.557,41.504,22.949,20.996,48.340,-7.324
1642356616.561,42.480,25.879,18.555,37.109,18.555
1642356616.565,43.945,20.996,19.043,34.180,39.551
1642356616.569,39.551,20.508,21.484,40.039,32.227
1642356616.573,39.062,24.414,20.996,34.668,23.438
1642356616.576,39.062,25.391,22.461,29.297,53.223
1642356616.580,37.109,27.832,21.484,32.227,77.637
1642356616.584,36.133,27.832,20.020,31.738,35.645
1642356616.588,40.527,25.391,21.484,38.086,5.371
1642356616.592,39.062,28.320,20.996,34.180,28.320
1642356616.610,37.598,32.227,20.020,28.809,49.805
1642356616.614,39.551,29.785,18.555,31.250,70.801
1642356616.618,39.551,26.855,18.066,30.762,67.383
1642356616.622,37.109,26.367,20.508,34.180,50.781
1642356616.626,39.551,25.879,23.438,40.527,19.043
1642356616.630,41.504,27.344,25.391,43.457,8.301
1642356616.634,35.645,27.832,28.320,37.598,36.133
1642356616.637,36.621,27.344,28.809,42.480,15.625
1642356616.641,37.598,25.391,28.320,46.387,31.738
1642356616.645,28.809,24.414,30.273,38.086,12.695
1642356616.649,29.785,27.344,33.691,40.039,-12.695
1642356616.653,28.320,26.855,34.668,38.574,36.133
1642356616.655,18.555,25.879,33.203,31.250,24.414
1642356616.659,21.973,30.273,31.250,34.668,14.648
1642356616.663,23.438,30.273,29.785,40.527,33.203
1642356616.667,16.113,26.855,32.715,41.504,53.223
1642356616.671,17.090,28.320,34.668,35.645,29.297
1642356616.675,23.438,28.809,34.180,34.180,25.391
1642356616.679,21.973,31.250,33.203,30.762,28.320
1642356616.682,18.555,33.691,31.250,31.738,35.645
1642356616.686,21.484,30.762,29.785,35.156,40.039
1642356616.690,22.461,27.832,27.832,21.484,28.809
1642356616.694,17.578,28.809,28.320,11.230,-9.277
1642356616.698,18.066,31.738,29.297,15.137,-38.086
1642356616.699,25.391,34.668,27.832,21.973,-12.207
1642356616.703,22.949,33.203,31.738,18.066,30.762
1642356616.707,21.973,31.738,33.691,15.137,9.766
1642356616.711,28.809,38.086,33.203,26.367,-6.836
1642356616.715,32.227,33.691,33.691,32.227,37.598
1642356616.719,33.691,30.762,32.715,27.344,23.438
1642356616.723,24.414,30.273,33.203,18.066,46.387
1642356616.726,16.113,29.785,32.227,13.672,62.012
1642356616.730,17.578,30.762,31.738,12.695,19.043
1642356616.734,20.996,27.344,35.156,14.160,25.391
1642356616.738,21.973,28.809,34.180,11.719,-14.648
1642356616.742,17.578,31.250,29.297,10.254,3.418
1642356616.745,21.973,31.250,30.762,14.160,60.059
1642356616.749,25.391,30.762,33.691,17.578,49.805
1642356616.753,24.902,32.227,31.738,19.531,51.758
1642356616.757,23.438,32.715,31.250,18.066,23.926
1642356616.761,22.461,30.273,31.250,20.020,1.953
1642356616.765,29.297,27.832,29.297,25.391,27.832
1642356616.769,27.344,26.855,30.273,22.949,26.855
1642356616.772,21.484,28.320,30.273,12.695,5.859
1642356616.776,27.344,30.762,29.785,23.438,9.277
1642356616.780,35.645,33.691,29.297,34.180,60.059
1642356616.784,31.250,33.691,28.809,25.879,135.254
1642356616.788,27.344,30.273,30.762,26.855,69.336
1642356616.789,31.250,33.203,29.785,29.785,-5.371
1642356616.793,29.297,30.762,30.273,31.738,54.688
1642356616.797,30.762,27.344,28.809,40.039,81.543
1642356616.801,24.414,30.762,29.785,22.949,3.418
1642356616.805,19.531,32.227,31.250,9.766,-29.297
1642356616.809,24.414,29.297,29.785,22.461,40.527
1642356616.813,19.043,29.785,28.809,20.508,41.504
1642356616.816,21.484,28.809,30.762,20.020,10.742
1642356616.820,32.715,27.344,30.273,31.250,-8.789
1642356616.824,30.273,32.715,27.832,35.645,-18.066
1642356616.828,25.391,34.180,29.785,40.039,38.574
1642356616.832,26.367,29.785,33.691,39.551,40.039
1642356616.834,25.879,29.297,32.227,30.762,5.859
1642356616.838,14.160,29.785,30.762,18.066,31.738
1642356616.842,6.836,30.273,29.297,12.695,78.125
1642356616.846,10.742,28.809,28.320,14.648,28.320
1642356616.850,14.160,28.320,30.762,13.672,-2.930
1642356616.854,15.137,31.250,30.273,18.555,2.930
1642356616.858,15.625,34.668,28.809,21.973,32.715
1642356616.861,21.973,32.227,28.320,21.973,79.102
1642356616.865,29.785,28.809,28.320,17.090,59.570
1642356616.869,30.762,27.832,32.715,13.672,18.066
1642356616.873,35.156,30.762,32.227,23.438,30.273
1642356616.877,38.574,34.668,27.832,31.738,84.473
1642356616.879,30.762,33.203,29.297,23.438,58.594
1642356616.883,22.949,28.320,32.715,15.137,20.020
1642356616.887,28.809,33.203,28.809,20.020,47.852
1642356616.891,32.715,32.227,28.809,22.949,40.527
1642356616.895,34.180,28.320,31.738,26.367,56.152
1642356616.899,30.762,31.738,30.273,29.297,38.574
1642356616.903,29.297,29.785,30.762,29.785,25.391
1642356616.906,32.227,29.297,27.344,29.297,49.316
1642356616.910,22.949,32.227,25.879,27.344,63.965
1642356616.914,21.973,28.320,28.320,24.414,60.059
1642356616.918,24.902,27.832,27.344,20.996,28.320
1642356616.922,22.461,30.762,27.344,20.020,20.020
1642356616.924,25.391,28.320,29.785,23.926,50.293
1642356616.928,27.344,30.273,28.320,20.020,31.738
1642356616.932,28.320,33.203,27.344,20.508,22.461
1642356616.936,28.809,30.273,26.367,25.879,14.648
1642356616.940,27.832,28.809,24.414,23.926,10.254
1642356616.944,30.273,30.762,23.438,18.555,4.883
1642356616.948,29.785,31.738,24.902,20.020,-22.461
1642356616.951,22.949,29.785,26.367,20.508,-3.906
1642356616.955,23.438,26.855,26.367,16.113,43.457
1642356616.959,29.297,29.297,27.832,17.090,53.223
1642356616.963,26.367,32.227,25.879,16.113,18.555
1642356616.967,22.461,31.250,29.297,12.695,-2.930
1642356616.970,26.367,36.133,29.785,21.484,16.113
1642356616.974,28.809,35.156,25.879,22.949,82.520
1642356616.978,26.367,30.273,26.367,16.113,97.656
1642356616.982,27.832,31.738,30.762,20.020,-1.953
1642356616.986,26.367,30.762,32.715,24.902,-1.465
1642356616.990,20.996,29.297,30.762,25.391,16.113
1642356616.994,19.531,32.715,30.762,23.438,-21.973
1642356616.997,18.555,34.180,29.785,21.484,-5.371
1642356617.001,20.020,32.227,30.273,21.484,51.758
1642356617.005,17.578,31.250,31.250,21.484,27.832
1642356617.009,20.020,32.227,27.344,21.484,44.922
1642356617.013,23.438,34.668,28.320,24.414,33.203
1642356617.030,19.531,33.691,35.645,21.484,16.113
1642356617.034,17.090,29.297,33.691,19.043,57.129
1642356617.038,18.555,28.809,30.273,17.578,49.316
1642356617.042,10.254,30.762,27.832,15.137,38.086
1642356617.046,8.301,29.785,25.391,19.531,9.766
1642356617.050,9.277,29.297,26.367,18.555,15.137
1642356617.054,12.207,32.715,25.879,12.695,26.855
1642356617.057,18.066,35.156,28.320,14.648,9.277
1642356617.061,18.066,36.133,32.715,18.066,-17.578
1642356617.065,20.020,34.668,34.180,20.996,-10.742
1642356617.069,22.461,30.273,34.668,23.926,39.062
1642356617.073,20.508,27.832,35.156,24.414,21.973
1642356617.075,19.043,28.809,32.715,20.020,35.645
1642356617.079,22.461,33.203,27.832,15.625,34.180
1642356617.083,27.344,33.203,26.367,19.043,31.250
1642356617.087,30.273,34.668,24.414,20.020,33.203
1642356617.091,32.715,35.156,27.832,20.020,1.465
1642356617.095,33.203,34.668,30.273,25.879,26.367
1642356617.099,30.762,37.109,31.250,31.738,62.012
1642356617.102,29.785,34.668,35.156,24.414,83.496
1642356617.106,28.809,30.762,33.691,25.391,3.418
1642356617.110,20.508,28.809,32.227,32.227,-24.414
1642356617.114,15.625,28.320,34.180,26.367,17.090
1642356617.118,17.090,28.320,33.691,17.090,4.883
1642356617.120,22.949,29.785,29.785,16.602,-7.812
1642356617.124,22.949,34.180,28.809,18.555,-22.461
1642356617.128,15.625,33.691,32.715,18.066,15.625
1642356617.132,16.602,32.715,29.785,20.996,71.777
1642356617.136,20.508,32.715,26.855,18.066,52.734
1642356617.140,19.531,34.180,25.879,17.578,-9.277
1642356617.144,16.113,32.715,24.414,20.508,-20.996
1642356617.147,15.137,27.832,26.367,22.461,20.996
1642356617.151,19.531,28.809,24.902,26.367,30.762
1642356617.155,21.973,30.273,25.879,20.020,34.668
1642356617.159,15.625,27.832,28.809,14.160,28.320
1642356617.163,15.625,30.273,30.273,16.113,37.598
1642356617.164,20.996,28.809,29.297,10.742,44.434
1642356617.168,22.949,30.273,26.855,11.230,10.254
1642356617.172,23.926,34.180,28.320,13.672,-4.395
1642356617.176,25.391,31.738,25.879,15.137,10.742
1642356617.180,23.926,31.250,24.902,18.555,31.738
1642356617.184,19.043,30.273,27.344,14.648,29.297
1642356617.188,19.043,29.297,28.809,13.184,18.555
1642356617.191,24.902,28.809,30.273,20.508,29.297
1642356617.195,19.531,29.297,30.762,23.926,10.254
1642356617.199,16.602,33.203,28.809,18.066,24.902
1642356617.203,28.809,30.762,30.273,17.090,45.410
1642356617.207,32.715,28.320,29.785,20.020,51.270
1642356617.210,24.902,32.715,30.762,18.555,82.520
1642356617.214,23.438,30.273,31.738,20.508,55.664
1642356617.218,26.855,25.879,31.250,20.020,-27.344
1642356617.222,33.203,26.367,32.227,26.367,-20.020
1642356617.226,32.715,27.344,32.715,32.227,45.410
1642356617.230,20.020,27.344,31.738,20.508,74.219
1642356617.234,8.301,25.879,33.691,9.766,50.293
1642356617.237,4.883,27.344,36.621,10.254,26.367
1642356617.241,11.230,29.297,31.738,17.090,20.996
1642356617.245,10.742,30.762,29.297,13.672,49.805
1642356617.249,8.301,31.738,29.297,7.324,65.430
1642356617.253,17.090,30.273,30.273,13.184,41.504
1642356617.254,19.043,29.785,30.762,20.020,20.020
1642356617.258,18.066,28.809,31.738,23.926,18.555
1642356617.262,24.414,27.344,33.203,25.879,5.371
1642356617.266,29.785,29.785,30.273,23.926,27.344
1642356617.270,24.902,30.762,31.250,23.926,31.738
1642356617.274,25.391,29.785,32.715,30.762,13.672
1642356617.278,30.273,30.273,33.203,33.203,7.812
1642356617.281,25.391,31.738,33.691,24.902,0.977
1642356617.285,21.484,33.203,31.250,20.508,18.555
1642356617.289,25.391,29.785,33.691,30.273,28.809
1642356617.293,28.320,29.297,33.691,30.273,30.762
1642356617.297,28.809,30.273,30.762,21.973,10.254
1642356617.299,27.832,33.691,30.273,21.973,42.969
1642356617.303,23.926,34.180,33.203,20.996,54.199
1642356617.307,28.809,31.250,32.227,24.902,7.324
1642356617.311,34.180,34.668,28.320,22.461,22.949
1642356617.315,34.180,38.574,27.832,14.160,5.859
1642356617.319,30.273,36.133,30.273,19.531,-13.672
1642356617.323,28.809,32.227,29.297,27.832,-0.977
1642356617.326,31.738,32.227,26.855,30.273,40.039
1642356617.330,34.668,31.250,29.785,25.391,41.504
1642356617.334,33.203,32.715,31.738,21.973,24.414
1642356617.338,29.297,31.738,33.691,26.855,41.016
1642356617.342,24.414,26.855,32.227,20.508,0.000
1642356617.360,23.926,29.785,28.809,15.137,18.555
1642356617.364,27.344,32.227,30.273,20.996,14.648
1642356617.368,23.438,31.738,31.250,29.785,44.434
1642356617.372,25.391,30.273,29.297,30.762,109.375
1642356617.376,22.461,29.297,29.785,20.996,60.059
1642356617.380,20.996,32.715,29.297,22.949,26.855
1642356617.384,24.414,34.180,30.762,22.949,52.734
1642356617.387,25.879,34.180,35.645,28.809,52.246
1642356617.391,29.785,35.156,34.180,35.156,45.898
1642356617.395,31.250,34.180,33.691,26.367,57.617
1642356617.399,25.879,29.785,39.062,20.996,30.273
1642356617.403,20.020,32.227,35.645,21.973,42.969
1642356617.405,24.902,35.645,30.762,27.344,50.293
1642356617.409,21.484,30.273,31.738,20.996,67.383
1642356617.413,17.090,30.273,29.785,18.066,77.148
1642356617.417,22.461,32.227,29.785,23.438,34.180
1642356617.421,22.949,28.809,29.785,17.578,67.871
1642356617.425,24.902,27.344,27.344,14.648,56.641
1642356617.429,29.785,33.203,27.344,16.113,33.203
1642356617.432,26.855,35.156,31.738,19.043,76.172
1642356617.436,26.855,27.344,34.668,25.391,36.621
1642356617.440,27.832,30.762,33.691,23.438,-0.977
1642356617.444,28.320,35.645,31.738,21.484,-27.344
1642356617.448,22.461,30.273,34.180,22.461,-52.734
1642356617.449,10.742,30.273,32.227,20.996,65.918
1642356617.453,7.812,31.250,30.762,15.625,68.848
1642356617.457,14.648,31.250,31.250,13.184,-29.785
1642356617.461,21.973,34.180,31.250,19.043,4.883
1642356617.465,18.555,32.227,33.691,19.531,28.320
1642356617.469,16.113,30.762,33.203,15.137,-19.043
1642356617.473,18.066,33.203,30.762,15.137,-4.883
1642356617.476,16.113,33.203,33.203,17.578,37.109
1642356617.480,13.672,33.691,35.645,22.461,20.996
1642356617.484,15.137,29.297,33.691,22.461,14.160
1642356617.488,16.602,25.879,33.203,19.531,72.754
1642356617.492,16.602,26.855,34.668,21.484,57.129
1642356617.494,20.508,29.297,34.180,21.484,29.785
1642356617.498,22.949,28.320,32.227,21.484,36.133
1642356617.502,26.367,29.297,30.273,27.832,20.996
1642356617.506,31.738,34.668,31.738,27.832,16.113
1642356617.510,24.414,33.203,35.156,19.043,13.672
1642356617.514,15.137,31.738,35.645,14.648,9.277
1642356617.518,22.461,31.738,32.715,17.578,23.926
1642356617.521,25.391,32.227,34.180,16.602,2.441
1642356617.525,20.996,30.273,37.109,18.555,-7.324
1642356617.529,22.949,30.762,36.621,24.902,16.113
1642356617.533,20.508,33.691,34.668,17.578,-1.953
1642356617.537,23.926,34.668,33.203,18.555,-24.414
1642356617.540,27.832,38.574,33.203,24.902,6.836
1642356617.544,25.879,41.504,35.156,23.438,55.664
1642356617.548,30.273,40.527,35.156,24.414,28.320
1642356617.552,31.738,38.574,33.203,28.320,34.180
1642356617.556,29.297,37.109,34.180,30.273,40.039
1642356617.560,27.344,36.621,37.598,24.414,49.805
1642356617.564,24.902,37.598,37.598,23.438,41.016
1642356617.567,28.809,38.086,36.133,26.367,14.648
1642356617.571,29.785,36.621,38.574,20.508,14.648
1642356617.575,25.391,38.574,36.621,25.879,34.180
1642356617.579,24.902,42.969,35.156,30.762,76.172
1642356617.583,24.414,39.062,34.668,17.578,44.922
1642356617.584,32.227,31.738,32.227,18.066,71.777
1642356617.588,29.785,34.180,30.273,26.367,86.426
1642356617.592,23.438,35.156,29.785,24.902,39.062
