timestamps,TP9,AF7,AF8,TP10,Right AUX
1643438798.894,-46.387,41.504,59.082,-45.410,26.367
1643438798.898,-49.316,47.363,62.012,-56.152,-13.184
1643438798.902,-46.875,46.875,70.312,-53.711,18.555
1643438798.906,-47.852,41.992,65.430,-53.223,31.738
1643438798.910,-36.621,43.457,56.152,-46.387,11.719
1643438798.914,-28.809,43.457,56.641,-37.598,10.254
1643438798.917,-34.180,41.992,56.152,-39.551,5.371
1643438798.921,-44.922,40.527,62.988,-43.457,51.270
1643438798.925,-36.133,40.039,63.965,-33.203,71.289
1643438798.929,-15.137,37.109,55.664,-19.043,62.012
1643438798.933,-14.160,33.203,56.641,-12.695,-0.488
1643438798.937,-6.836,31.250,57.617,-7.324,19.531
1643438798.940,13.184,30.273,50.293,3.906,17.578
1643438798.944,19.531,32.715,45.410,15.137,34.180
1643438798.948,17.090,30.273,43.945,17.090,127.930
1643438798.952,24.902,25.391,38.574,25.391,90.820
1643438798.956,37.598,22.949,30.273,40.039,11.719
1643438798.960,41.504,20.996,27.344,42.969,1.953
1643438798.963,46.875,22.461,24.414,43.945,50.781
1643438798.967,43.457,22.461,23.926,42.969,90.332
1643438798.971,51.270,19.531,22.461,46.875,57.129
1643438798.975,67.383,21.484,20.508,60.059,38.086
1643438798.979,64.941,21.973,16.113,62.012,23.926
1643438798.983,64.941,20.996,8.301,56.641,13.672
1643438798.988,68.359,21.973,10.742,56.152,52.246
1643438798.992,63.965,26.367,10.254,53.711,50.293
1643438798.996,61.523,26.367,7.812,51.270,3.418
1643438799.000,65.430,24.414,5.859,56.641,2.441
1643438799.004,65.918,24.902,5.371,59.082,-7.812
1643438799.008,61.523,22.949,10.742,57.129,-23.926
1643438799.011,65.918,21.973,11.230,64.453,7.812
1643438799.015,66.895,24.414,9.277,62.988,39.062
1643438799.019,61.035,24.414,15.137,55.176,70.801
1643438799.023,57.617,23.926,17.090,56.641,41.992
1643438799.027,56.641,22.949,11.230,52.734,6.348
1643438799.031,56.152,23.438,10.254,51.758,0.977
1643438799.030,54.199,24.414,16.602,53.223,55.664
1643438799.034,44.922,24.414,13.672,50.781,41.504
1643438799.038,41.016,25.391,9.277,49.316,1.953
1643438799.042,40.039,24.902,12.207,44.434,58.105
1643438799.046,42.480,27.832,11.230,45.410,57.129
1643438799.050,46.387,28.809,8.789,49.316,40.527
1643438799.053,44.434,27.832,12.695,44.922,-2.441
1643438799.057,43.945,31.250,13.184,44.434,5.859
1643438799.061,42.480,32.715,12.207,42.480,45.898
1643438799.065,41.992,29.785,17.578,42.480,22.949
1643438799.069,37.598,26.855,18.555,38.574,27.832
1643438799.073,34.668,26.855,19.043,32.715,10.254
1643438799.074,40.039,26.855,18.555,36.621,30.273
1643438799.078,36.621,25.879,18.555,32.715,36.621
1643438799.082,29.297,23.438,20.020,33.203,-4.395
1643438799.086,29.785,21.973,22.949,39.062,-14.648
1643438799.090,26.855,23.926,22.949,33.691,6.348
1643438799.094,27.832,27.344,23.438,30.273,10.742
1643438799.097,29.297,26.367,22.461,29.297,36.133
1643438799.101,22.461,20.996,21.973,26.855,66.406
1643438799.105,19.531,20.508,23.926,27.832,32.227
1643438799.109,20.996,20.996,24.902,28.320,11.719
1643438799.113,23.438,23.438,24.414,21.484,58.105
1643438799.117,26.367,26.367,24.902,21.973,34.180
1643438799.120,22.461,23.926,24.414,26.367,9.277
1643438799.124,19.043,23.438,23.926,29.785,17.578
1643438799.128,22.461,23.926,30.762,35.156,0.977
1643438799.132,25.391,25.879,32.715,32.227,10.254
1643438799.136,21.973,30.273,31.250,31.250,36.133
1643438799.140,18.066,27.832,29.785,29.785,63.965
1643438799.143,17.578,23.926,28.320,23.926,23.926
1643438799.147,17.578,24.414,34.668,21.484,-5.371
1643438799.151,19.531,26.367,31.738,22.461,31.738
1643438799.155,28.320,28.320,23.438,22.949,43.945
1643438799.159,25.879,28.320,24.414,20.996,-0.977
1643438799.163,18.555,26.367,25.879,14.648,1.465
1643438799.180,23.926,27.344,25.391,15.625,0.977
1643438799.184,25.879,28.320,21.484,20.020,-4.883
1643438799.188,29.297,29.297,22.461,24.414,59.570
1643438799.192,31.738,29.785,24.414,23.438,81.543
1643438799.196,23.926,27.832,24.902,20.508,45.410
1643438799.200,20.020,27.832,23.438,23.438,-14.648
1643438799.203,21.484,26.367,24.902,24.902,-33.691
1643438799.207,21.484,25.879,29.297,24.414,35.156
1643438799.211,20.996,28.809,26.855,25.879,78.125
1643438799.215,20.020,32.227,21.973,26.367,43.945
1643438799.219,19.043,32.715,22.949,23.438,45.898
1643438799.223,18.066,29.297,24.414,17.090,53.711
1643438799.225,19.043,26.855,24.414,17.578,10.254
1643438799.229,22.949,26.367,23.926,19.531,10.254
1643438799.233,26.367,25.879,22.949,20.508,11.230
1643438799.237,21.973,28.320,22.949,19.043,7.812
1643438799.241,22.461,29.785,21.973,21.973,26.855
1643438799.245,25.879,28.320,20.996,26.855,15.625
1643438799.248,24.414,29.297,22.461,21.484,-17.578
1643438799.252,22.461,28.320,27.344,22.949,-22.461
1643438799.256,26.855,29.785,30.273,33.691,-12.207
1643438799.260,27.832,31.738,30.273,34.180,12.207
1643438799.264,29.785,30.273,31.250,27.344,49.316
1643438799.268,27.832,27.344,31.738,23.926,11.719
1643438799.270,20.996,26.367,29.785,25.879,46.387
1643438799.274,22.949,26.855,31.738,28.320,68.359
1643438799.278,23.926,25.391,34.180,30.273,57.129
1643438799.282,23.438,23.926,31.738,31.738,52.246
1643438799.286,23.926,27.832,28.809,30.762,104.980
1643438799.290,28.809,31.738,28.320,29.785,84.961
1643438799.293,30.762,30.762,29.297,26.367,42.969
1643438799.297,20.508,29.297,32.227,19.043,79.590
1643438799.301,21.973,30.273,28.809,17.090,59.570
1643438799.305,25.879,30.762,28.320,19.531,66.406
1643438799.309,21.973,30.273,32.227,14.160,25.879
1643438799.313,20.020,29.297,29.297,12.695,51.270
1643438799.315,26.367,29.785,29.785,15.137,63.477
1643438799.319,30.762,31.738,29.297,15.625,34.668
1643438799.323,23.926,31.250,28.809,18.066,4.395
1643438799.327,23.926,31.250,30.273,20.020,5.371
1643438799.331,27.344,33.203,29.297,21.484,20.996
1643438799.335,25.879,34.668,29.297,19.043,2.930
1643438799.338,26.367,32.715,32.227,17.090,22.949
1643438799.342,19.043,32.715,31.738,16.113,23.926
1643438799.346,12.695,34.180,29.297,14.160,1.465
1643438799.350,15.137,28.809,31.250,11.230,37.598
1643438799.354,20.020,25.391,33.203,15.625,30.762
1643438799.358,27.832,29.785,28.809,24.414,-20.996
1643438799.359,32.227,29.785,29.785,22.949,-7.324
1643438799.363,30.273,28.809,31.250,21.484,11.230
1643438799.367,24.414,29.785,31.738,16.113,18.555
1643438799.371,27.344,30.762,32.227,19.531,57.129
1643438799.375,31.738,32.715,30.762,25.879,28.320
1643438799.379,26.855,30.762,28.809,21.973,-29.785
1643438799.382,28.809,31.250,28.809,23.438,22.949
1643438799.386,32.227,32.227,29.785,24.902,68.848
1643438799.390,32.227,31.738,29.785,25.879,91.797
1643438799.394,33.691,32.715,31.738,24.414,94.727
1643438799.398,36.621,33.691,32.227,31.250,52.246
1643438799.402,34.668,33.203,33.203,31.738,55.176
1643438799.405,29.297,30.762,29.297,22.461,53.223
1643438799.409,28.809,27.832,28.809,22.949,35.156
1643438799.413,25.879,30.273,30.273,27.344,37.598
1643438799.417,19.531,33.203,26.855,23.926,42.480
1643438799.421,24.902,28.320,30.762,22.461,29.297
1643438799.425,23.926,28.320,28.809,28.809,68.848
1643438799.428,17.578,30.273,25.391,20.508,72.754
1643438799.432,18.066,26.367,26.367,12.695,50.781
1643438799.436,17.090,25.391,25.391,13.672,-9.277
1643438799.440,15.625,25.879,26.367,11.719,17.578
1643438799.444,19.043,24.902,27.344,14.648,79.590
1643438799.448,18.555,26.367,27.344,13.184,62.012
1643438799.451,19.531,26.367,27.344,12.695,81.055
1643438799.455,23.438,26.855,24.414,15.625,6.836
1643438799.459,22.949,29.297,25.879,19.043,-18.555
1643438799.463,27.832,29.785,29.297,26.855,10.254
1643438799.467,30.762,30.273,28.320,28.809,0.488
1643438799.471,26.367,29.785,24.902,26.855,-12.695
1643438799.474,28.320,26.855,22.461,28.809,-21.973
1643438799.478,34.668,27.344,25.391,27.344,17.090
1643438799.482,33.203,28.809,28.809,21.973,49.805
1643438799.486,29.785,30.762,30.762,23.926,42.480
1643438799.490,30.762,32.715,30.273,28.320,42.480
1643438799.494,34.668,32.227,28.320,30.273,35.645
1643438799.495,32.227,31.250,31.250,29.785,58.105
1643438799.499,32.227,29.785,30.762,31.738,5.371
1643438799.503,32.227,28.809,28.320,24.414,-20.996
1643438799.507,28.809,33.203,28.809,18.066,58.594
1643438799.511,22.949,33.203,30.273,26.855,36.133
1643438799.515,22.461,30.762,33.691,24.902,5.371
1643438799.518,28.320,30.762,35.156,16.113,-0.977
1643438799.522,20.508,32.227,33.203,12.695,16.113
1643438799.526,16.113,31.250,35.156,15.625,70.801
1643438799.530,21.973,26.367,35.156,19.531,40.527
1643438799.534,21.484,25.391,30.273,20.508,14.648
1643438799.538,20.508,27.832,30.273,18.555,-4.883
1643438799.570,23.438,27.344,32.227,20.508,3.906
1643438799.574,22.949,26.367,34.180,20.020,28.809
1643438799.578,23.438,24.902,36.133,14.160,94.238
1643438799.582,23.926,27.344,29.785,14.648,42.480
1643438799.586,22.461,27.344,30.273,20.508,-6.348
1643438799.590,21.973,24.902,32.227,19.531,29.297
1643438799.593,20.996,26.855,33.691,15.625,18.555
1643438799.597,20.996,23.438,37.598,19.531,11.230
1643438799.601,24.414,24.414,34.668,21.973,24.902
1643438799.605,22.949,28.809,28.809,19.043,56.641
1643438799.609,22.461,26.367,29.297,16.113,55.664
1643438799.613,25.879,26.855,31.250,15.137,62.988
1643438799.599,22.949,26.855,25.879,23.926,38.086
1643438799.603,23.438,24.902,25.879,28.320,27.832
1643438799.607,22.461,29.297,26.855,23.926,20.996
1643438799.611,16.602,30.273,26.855,23.926,5.371
1643438799.615,17.090,27.344,27.832,22.949,69.336
1643438799.619,16.113,25.391,28.320,18.066,30.273
1643438799.622,12.695,25.391,27.344,15.625,19.043
1643438799.626,18.555,29.297,24.902,17.578,19.531
1643438799.630,19.043,28.320,21.484,14.160,-16.602
1643438799.634,17.578,22.949,24.902,12.695,57.129
1643438799.638,18.066,23.438,29.297,17.090,52.246
1643438799.642,15.625,26.855,29.297,16.602,27.344
1643438799.644,19.043,27.832,27.344,19.043,8.789
1643438799.648,25.879,29.785,26.367,22.461,-11.230
1643438799.652,24.414,29.785,30.762,18.555,-7.324
1643438799.656,20.020,30.273,34.180,14.648,-19.531
1643438799.660,22.949,30.762,29.785,16.113,10.254
1643438799.664,22.461,29.785,27.344,20.508,79.590
1643438799.667,19.043,27.344,32.227,18.066,96.680
1643438799.671,20.996,28.320,32.715,17.578,52.734
1643438799.675,17.578,27.832,32.227,18.555,71.777
1643438799.679,14.160,28.320,29.785,17.090,76.172
1643438799.683,17.090,27.832,28.809,18.066,39.551
1643438799.687,17.090,25.391,28.320,17.578,6.348
1643438799.691,17.090,25.391,30.273,18.066,-30.273
1643438799.695,16.113,25.391,32.715,19.531,32.715
1643438799.699,13.184,23.926,33.691,14.160,39.062
1643438799.703,12.207,22.461,35.156,14.160,6.348
1643438799.707,17.090,24.902,34.668,17.578,25.879
1643438799.711,17.578,25.879,34.668,18.555,-2.441
1643438799.714,16.113,25.391,33.691,17.578,-12.695
1643438799.718,18.066,26.855,35.156,22.949,32.715
1643438799.722,17.578,23.438,34.180,24.414,35.645
1643438799.726,17.090,23.926,33.691,16.602,27.344
1643438799.730,22.461,28.809,33.203,19.531,70.312
1643438799.734,21.484,26.855,32.715,24.414,55.176
1643438799.735,17.090,25.879,33.691,26.367,21.973
1643438799.739,17.578,28.809,33.691,25.879,6.348
1643438799.743,20.508,29.297,33.203,20.996,9.766
1643438799.747,22.949,25.879,34.180,20.996,30.762
1643438799.751,21.973,23.438,34.180,21.973,13.184
1643438799.755,22.461,23.438,28.809,23.926,-29.785
1643438799.758,25.879,26.367,29.297,23.926,6.836
1643438799.762,30.273,27.832,30.762,27.832,68.359
1643438799.766,29.297,28.320,31.738,24.902,20.996
1643438799.770,24.414,28.320,34.180,16.602,2.930
1643438799.774,23.438,27.344,30.273,16.602,20.020
1643438799.778,22.949,26.367,25.391,17.090,25.879
1643438799.780,25.391,27.832,25.879,21.973,54.688
1643438799.784,27.344,29.785,29.785,21.973,30.273
1643438799.788,26.367,30.273,26.855,14.648,32.715
1643438799.792,24.902,27.344,25.879,15.137,65.430
1643438799.796,23.926,25.391,26.855,19.531,22.461
1643438799.800,23.926,27.344,28.809,23.438,39.551
1643438799.803,22.949,29.297,28.809,21.973,44.434
1643438799.807,23.926,29.297,27.832,17.090,-39.062
1643438799.811,24.902,29.297,31.250,16.602,-20.996
1643438799.815,25.391,26.855,32.227,20.508,34.180
1643438799.819,25.879,25.391,29.297,21.484,14.160
1643438799.823,22.949,26.855,27.344,20.020,14.648
1643438799.825,20.508,25.879,28.809,18.555,40.527
1643438799.829,20.508,25.879,29.297,15.625,31.738
1643438799.833,23.926,27.832,25.879,20.508,20.020
1643438799.837,23.926,26.367,25.391,21.484,5.859
1643438799.841,14.648,22.949,30.273,16.113,-15.137
1643438799.845,15.137,23.438,29.785,18.066,6.348
1643438799.848,21.484,24.414,26.367,22.949,50.293
1643438799.852,18.066,22.461,30.762,21.484,45.410
1643438799.856,15.137,20.020,35.645,18.555,31.738
1643438799.860,21.484,20.508,27.832,20.996,71.289
1643438799.864,23.438,21.973,26.855,21.973,68.359
1643438799.868,26.855,24.902,31.250,29.297,44.922
1643438799.870,27.832,27.344,27.832,35.645,76.660
1643438799.874,23.926,25.879,30.273,30.762,94.727
1643438799.878,20.508,23.438,32.715,29.785,69.336
1643438799.882,18.066,26.367,31.250,30.273,37.598
1643438799.886,21.484,25.391,30.762,28.320,-0.977
1643438799.890,23.438,23.926,28.809,26.367,-6.836
1643438799.893,19.531,23.926,30.762,17.578,24.414
1643438799.897,21.484,23.926,34.180,20.508,10.742
1643438799.901,24.902,27.344,33.691,29.297,26.367
1643438799.905,22.461,24.414,30.273,25.879,24.414
1643438799.909,22.949,18.066,31.250,24.902,54.688
1643438799.913,27.344,18.555,32.715,27.344,55.664
1643438799.916,27.832,19.043,32.715,26.367,23.438
1643438799.920,21.484,18.066,31.738,19.043,8.301
1643438799.924,20.020,22.461,32.227,16.602,25.879
1643438799.928,23.926,23.438,32.715,17.090,39.062
1643438799.932,20.996,19.531,33.691,13.184,31.250
1643438799.936,21.484,22.949,29.297,18.066,35.645
1643438799.939,22.461,23.438,25.391,19.531,55.664
1643438799.943,19.531,20.996,28.320,11.719,75.684
1643438799.947,20.508,21.973,25.879,14.160,82.520
1643438799.951,25.391,24.902,23.926,21.973,57.129
1643438799.955,30.273,27.344,30.273,26.855,-24.414
1643438799.959,35.645,29.297,30.762,32.227,-0.977
1643438799.975,37.598,26.367,30.762,37.598,91.797
1643438799.979,35.645,24.414,37.109,38.574,46.875
1643438799.983,39.062,28.809,33.203,34.668,45.410
1643438799.987,38.086,28.320,29.297,32.227,86.914
1643438799.991,34.180,28.320,31.250,28.320,59.082
1643438799.995,40.039,30.762,28.320,26.855,7.324
1643438799.998,40.039,34.180,30.273,26.855,-0.488
1643438800.002,34.180,34.668,33.203,21.973,17.578
1643438800.006,31.738,31.250,31.250,18.066,-17.578
1643438800.010,25.879,27.344,28.809,19.531,-26.855
1643438800.014,15.137,22.949,36.133,17.090,18.066
1643438800.018,8.301,21.484,40.039,13.184,40.039
1643438800.020,6.348,22.949,33.691,13.672,44.434
1643438800.024,7.324,22.461,31.738,17.090,29.785
1643438800.028,6.348,20.996,37.598,15.137,44.922
1643438800.032,7.812,19.043,38.574,14.160,61.035
1643438800.036,17.090,23.438,35.645,18.555,50.781
1643438800.040,22.461,23.438,37.109,23.926,31.250
1643438800.043,29.297,22.949,37.598,27.344,-19.043
1643438800.047,28.320,25.391,38.086,22.461,-40.039
1643438800.051,25.879,24.902,35.645,20.508,-11.230
1643438800.055,35.156,26.367,31.738,25.879,47.852
1643438800.059,33.203,24.902,35.645,27.344,72.754
1643438800.063,25.879,25.391,31.738,24.902,59.570
1643438800.080,26.367,29.297,29.785,22.949,54.199
1643438800.084,29.785,31.250,33.203,21.973,90.820
1643438800.088,27.344,32.715,31.250,21.973,48.828
1643438800.092,20.508,32.227,29.297,17.090,3.418
1643438800.096,18.555,31.738,26.367,11.230,55.664
1643438800.100,23.926,34.180,23.438,12.207,42.969
1643438800.103,24.902,30.273,23.438,10.254,-14.160
1643438800.107,18.555,26.855,23.926,7.324,30.273
1643438800.111,20.020,28.320,20.020,8.789,44.922
1643438800.115,26.367,27.832,21.973,14.160,51.758
1643438800.119,26.855,27.344,29.785,23.438,95.703
1643438800.123,24.414,28.809,29.297,24.902,43.457
1643438800.110,23.926,27.832,27.832,22.949,33.691
1643438800.114,22.461,24.414,32.227,22.949,84.961
1643438800.118,17.090,19.531,32.715,26.855,32.227
1643438800.122,12.207,16.602,32.227,29.785,22.461
1643438800.126,15.625,15.137,35.156,35.156,28.320
1643438800.130,25.879,14.648,36.133,47.363,20.020
1643438800.133,23.438,15.137,40.039,44.922,20.508
1643438800.137,12.207,19.043,38.086,36.621,-7.812
1643438800.141,17.090,22.461,36.621,40.039,-39.551
1643438800.145,25.391,27.832,37.598,41.504,18.555
1643438800.149,24.414,29.785,34.668,31.738,57.617
1643438800.153,32.715,32.227,29.297,30.273,31.738
1643438800.155,32.715,34.668,25.391,26.367,39.062
1643438800.159,25.391,33.691,27.832,16.113,45.410
1643438800.163,31.250,30.762,24.902,11.230,33.203
1643438800.167,40.527,27.344,26.855,11.230,52.246
1643438800.171,37.109,27.832,24.902,8.301,33.691
1643438800.175,33.691,29.785,17.090,3.906,60.547
1643438800.178,30.273,29.785,22.949,8.301,60.059
1643438800.182,26.855,27.832,29.297,8.301,42.480
1643438800.186,28.320,28.320,31.250,7.812,1.953
1643438800.190,26.855,27.832,30.762,14.160,-12.695
1643438800.194,31.250,25.879,28.809,20.020,73.730
1643438800.198,38.086,24.902,28.809,24.902,60.059
1643438800.199,33.203,25.391,30.273,28.809,-0.488
1643438800.203,29.297,27.832,27.344,34.180,-6.348
1643438800.207,24.414,27.832,28.320,32.715,42.480
1643438800.211,25.391,27.832,31.738,31.250,39.062
1643438800.215,25.391,28.320,28.809,31.250,16.602
1643438800.219,26.367,26.855,29.785,33.203,17.090
1643438800.222,27.832,29.785,28.320,34.180,27.832
1643438800.226,24.902,27.832,27.344,31.738,29.785
1643438800.230,23.438,23.438,31.738,34.668,9.766
1643438800.234,21.484,24.414,31.250,33.203,20.508
1643438800.238,20.508,25.391,28.320,26.367,71.777
1643438800.242,16.113,23.438,26.367,20.020,64.941
1643438800.244,18.066,22.949,22.949,15.625,21.484
1643438800.248,18.066,25.879,22.461,16.113,-16.113
1643438800.252,15.625,26.367,23.926,19.531,8.789
1643438800.256,20.996,32.227,17.578,25.391,40.039
1643438800.260,20.996,37.598,19.043,25.879,41.504
1643438800.264,13.672,33.691,24.414,16.113,73.730
1643438800.267,14.160,29.785,23.926,8.301,17.090
1643438800.271,16.602,31.250,28.809,11.230,6.836
1643438800.275,12.207,32.715,31.250,14.648,22.461
1643438800.279,12.207,26.855,29.297,14.160,-11.719
1643438800.283,12.695,26.367,27.832,17.578,-28.809
1643438800.287,13.672,26.855,31.738,18.066,14.160
1643438800.289,16.602,24.414,32.715,20.020,71.289
1643438800.293,18.066,25.391,27.832,30.762,52.246
1643438800.297,15.625,22.461,30.762,23.438,71.777
1643438800.301,21.484,21.484,32.227,20.020,87.402
1643438800.305,27.344,23.926,29.297,30.762,43.945
1643438800.309,22.461,20.508,29.785,24.414,33.203
1643438800.312,19.531,22.949,31.250,20.996,33.691
1643438800.316,20.508,26.367,32.715,23.438,48.340
1643438800.320,20.020,22.461,32.227,21.973,86.426
1643438800.324,22.461,23.926,27.344,21.484,49.316
1643438800.328,28.320,28.320,29.297,21.973,-10.742
1643438800.332,31.250,31.738,29.297,19.531,-6.348
1643438800.349,28.809,29.785,25.391,11.230,-10.742
1643438800.353,28.320,28.809,26.367,10.254,4.883
1643438800.357,27.832,27.344,26.367,17.578,28.809
1643438800.361,23.438,25.391,25.879,18.555,64.941
1643438800.365,22.949,29.297,24.902,14.160,37.109
1643438800.369,17.090,30.273,27.344,9.277,8.301
1643438800.372,16.602,28.320,31.738,12.695,8.301
1643438800.376,20.996,28.320,30.273,24.902,20.508
1643438800.380,24.902,27.344,28.320,31.738,25.391
1643438800.384,26.855,28.320,28.809,28.809,-7.324
1643438800.388,24.902,28.320,28.809,26.855,7.324
1643438800.392,26.855,27.344,32.227,30.762,23.438
1643438800.394,25.391,29.785,32.715,26.367,42.480
1643438800.398,22.461,29.785,31.250,24.414,56.152
1643438800.402,22.949,28.809,31.738,25.879,46.387
1643438800.406,19.043,27.344,31.738,25.879,55.176
1643438800.410,18.555,27.832,31.738,23.438,65.918
1643438800.414,24.414,31.738,28.809,20.996,20.508
1643438800.417,28.809,30.762,25.879,24.902,-5.859
1643438800.421,26.367,27.344,29.297,20.020,41.504
1643438800.425,25.391,27.344,25.391,20.508,59.570
1643438800.429,29.297,30.762,20.508,25.391,-5.371
1643438800.433,32.227,30.762,27.832,25.879,16.113
1643438800.437,31.250,28.320,30.273,20.996,71.777
1643438800.439,28.809,28.320,28.320,19.531,8.789
1643438800.443,26.367,27.832,30.273,21.973,26.367
1643438800.447,24.902,29.785,30.273,19.531,54.688
1643438800.451,24.902,31.250,28.809,20.508,8.301
1643438800.455,27.344,29.785,30.273,21.484,3.906
1643438800.459,28.809,28.809,29.297,20.020,20.020
1643438800.462,27.832,28.320,27.344,20.508,26.367
1643438800.466,22.461,27.832,26.367,13.672,32.715
1643438800.470,18.066,26.367,25.391,10.254,28.809
1643438800.474,20.020,25.391,25.391,11.719,55.176
1643438800.478,20.508,27.344,21.973,8.789,5.371
1643438800.482,17.090,26.367,25.391,6.836,23.926
1643438800.485,14.160,26.367,29.297,10.742,49.316
1643438800.489,16.602,28.320,30.273,16.113,9.766
1643438800.493,17.578,25.879,29.785,18.555,41.992
1643438800.497,16.602,24.902,26.367,16.602,59.570
1643438800.501,14.648,25.879,27.344,12.207,74.707
1643438800.505,13.184,25.879,27.832,13.184,32.715
1643438800.508,18.555,30.273,25.391,18.066,6.348
1643438800.512,21.484,31.250,28.320,17.090,47.363
1643438800.516,17.090,30.273,27.344,17.090,47.852
1643438800.520,15.625,30.762,25.879,14.160,69.336
1643438800.524,18.555,28.809,27.344,15.625,3.418
1643438800.528,15.137,26.367,27.832,17.090,-19.043
1643438800.530,13.184,24.902,29.785,18.066,-9.277
1643438800.534,13.184,24.902,32.227,22.949,-41.504
1643438800.538,10.742,23.926,28.320,22.461,-22.949
1643438800.542,15.625,21.484,26.855,17.090,17.578
1643438800.546,19.531,23.438,27.344,13.184,62.012
1643438800.550,18.555,23.438,26.367,15.625,81.543
1643438800.553,23.926,22.949,30.273,17.090,92.285
1643438800.557,26.855,26.367,28.320,16.602,84.961
1643438800.561,25.391,25.879,25.879,17.090,-3.418
1643438800.565,26.855,24.902,26.855,18.555,-43.945
1643438800.569,28.809,24.414,27.344,28.809,31.738
1643438800.573,28.809,26.855,29.297,27.344,44.922
1643438800.575,20.020,26.855,31.738,21.973,45.410
1643438800.579,9.766,24.902,34.180,25.391,54.199
1643438800.583,9.277,26.367,34.180,24.414,20.508
1643438800.587,11.230,24.414,32.227,24.902,-12.207
1643438800.591,12.695,21.973,34.668,23.926,19.043
1643438800.595,17.578,24.902,34.668,28.809,73.730
1643438800.598,23.926,25.879,32.715,35.156,12.695
1643438800.602,21.484,21.973,37.598,26.855,-62.500
1643438800.606,16.602,21.973,34.668,20.996,-13.184
1643438800.610,20.996,22.949,31.738,26.855,47.852
1643438800.614,19.531,21.973,35.645,23.926,25.879
1643438800.618,19.043,24.414,36.621,20.508,46.387
1643438800.621,21.484,27.344,35.645,21.484,77.148
1643438800.625,21.973,26.367,29.785,22.461,41.992
1643438800.629,22.461,27.832,28.809,25.391,24.902
1643438800.633,21.973,29.785,32.227,23.438,37.109
1643438800.637,23.926,26.367,31.250,21.484,30.273
1643438800.641,24.414,21.973,33.203,18.066,-5.371
1643438800.644,29.297,25.391,31.250,18.555,8.301
1643438800.648,33.203,30.273,29.785,20.996,35.156
1643438800.652,33.203,29.785,31.738,28.320,32.715
1643438800.656,36.133,30.762,30.762,30.762,12.695
1643438800.660,30.273,30.273,32.715,23.438,38.574
1643438800.664,21.973,27.344,34.668,20.020,51.270
1643438800.680,22.461,26.855,32.715,16.602,47.852
1643438800.684,25.391,28.809,31.250,17.578,57.617
1643438800.688,29.785,28.809,30.762,24.902,14.160
1643438800.692,27.832,25.391,33.203,25.879,30.762
1643438800.696,25.879,27.344,33.691,20.508,27.832
1643438800.700,23.926,29.297,30.762,15.625,23.926
1643438800.703,24.902,25.879,28.320,18.066,62.012
1643438800.707,21.973,25.391,30.762,17.578,35.645
1643438800.711,20.020,26.367,33.691,12.207,7.812
1643438800.715,23.438,24.902,31.738,13.184,41.504
1643438800.719,18.066,23.926,32.715,17.578,61.035
1643438800.723,19.043,22.461,34.180,17.090,57.617
1643438800.724,24.414,22.949,35.156,15.625,66.406
1643438800.728,20.508,23.926,33.691,16.113,33.691
1643438800.732,20.020,22.949,33.203,19.043,0.977
1643438800.736,21.484,25.391,32.227,23.438,52.734
1643438800.740,26.855,27.832,32.715,28.809,24.902
1643438800.744,31.250,32.715,31.250,30.273,0.488
1643438800.747,23.926,29.785,30.273,20.508,20.020
1643438800.751,23.926,28.809,33.203,18.555,31.250
1643438800.755,29.297,34.180,32.227,19.043,26.855
1643438800.759,25.391,31.250,35.156,18.066,7.812
1643438800.763,26.855,29.785,41.992,23.926,53.223
1643438800.767,31.738,33.691,40.039,28.320,15.625
1643438800.770,29.785,29.297,37.598,27.832,35.645
1643438800.774,26.855,24.902,36.621,22.949,18.066
1643438800.778,24.902,28.809,31.738,17.090,-10.742
1643438800.782,26.855,31.738,35.156,21.484,29.785
1643438800.786,20.996,32.715,41.992,20.508,63.965
1643438800.790,9.277,32.715,44.434,15.137,34.180
1643438800.793,17.578,31.250,46.875,16.602,-5.371
1643438800.797,22.461,31.250,43.945,14.160,31.738
1643438800.801,6.836,33.691,42.969,8.789,41.504
1643438800.805,3.906,33.203,43.457,9.766,20.020
1643438800.809,10.254,31.250,47.363,10.742,-12.695
1643438800.813,2.930,32.715,46.875,2.930,4.883
1643438800.815,0.000,31.738,44.922,2.930,68.848
1643438800.819,10.254,29.297,45.898,10.254,55.176
1643438800.823,6.836,28.809,43.945,4.883,-13.672
1643438800.827,4.883,27.832,40.039,-0.977,-3.906
1643438800.831,11.230,29.785,37.598,7.812,33.691
1643438800.835,14.160,30.273,36.621,13.184,25.879
1643438800.838,16.113,23.926,39.062,19.531,63.477
1643438800.842,15.137,22.949,40.039,20.996,106.934
1643438800.846,14.160,25.879,35.156,19.531,105.469
1643438800.850,16.113,23.438,36.133,26.367,47.852
1643438800.854,20.508,26.367,40.039,23.438,15.137
1643438800.858,21.484,27.832,33.691,20.020,25.391
1643438800.860,17.578,23.926,31.738,23.926,46.387
1643438800.864,14.648,25.879,31.738,27.832,23.926
1643438800.868,16.113,25.391,25.879,27.344,-10.254
1643438800.872,14.648,23.438,29.785,23.926,-7.812
1643438800.876,19.043,25.879,29.785,25.879,31.738
1643438800.880,24.414,26.367,25.879,26.367,44.434
1643438800.883,30.273,25.391,26.855,29.297,39.062
1643438800.887,35.156,24.414,26.855,34.668,41.016
1643438800.891,32.715,24.902,28.320,34.180,13.184
1643438800.895,31.250,26.855,31.738,30.762,14.160
1643438800.899,29.297,24.902,34.180,21.484,74.707
1643438800.903,26.855,24.902,30.762,17.578,64.453
1643438800.906,24.414,26.367,28.320,19.043,-2.930
1643438800.910,26.367,25.879,28.809,20.020,-1.953
1643438800.914,29.785,26.367,30.273,24.414,22.949
1643438800.918,26.855,24.902,27.832,27.344,39.551
1643438800.922,29.785,27.344,21.484,26.855,52.734
1643438800.926,36.621,27.832,22.949,29.297,82.520
1643438800.929,34.668,26.855,24.414,35.645,27.344
1643438800.933,38.086,30.273,22.949,36.133,-3.906
1643438800.937,34.668,28.809,24.414,30.273,13.184
1643438800.941,34.180,27.832,25.391,26.855,23.926
1643438800.945,43.457,25.391,24.414,36.621,23.926
1643438800.949,41.504,22.949,27.832,37.109,47.852
1643438800.950,34.180,24.902,28.320,24.414,46.387
1643438800.954,34.668,25.879,26.367,25.879,28.320
1643438800.958,40.039,26.855,25.879,32.715,44.922
1643438800.962,36.621,26.367,27.344,26.855,22.949
1643438800.966,34.668,24.902,30.273,31.738,11.230
1643438800.970,33.203,24.414,29.785,35.645,22.949
1643438800.973,30.762,22.949,27.344,26.367,52.734
1643438800.977,35.645,23.438,26.855,31.250,61.035
1643438800.981,36.133,25.391,29.297,31.738,-18.555
1643438800.985,38.574,26.367,27.344,28.320,16.113
1643438800.989,38.574,28.320,26.367,30.762,50.293
1643438800.993,31.738,26.855,28.320,32.227,14.648
1643438800.995,32.227,27.832,30.273,31.250,-5.859
1643438800.999,28.809,25.879,30.762,23.438,17.578
1643438801.003,27.832,24.414,29.297,23.926,31.250
1643438801.007,33.203,24.902,24.414,26.367,44.434
1643438801.011,26.367,27.344,28.320,20.996,51.758
1643438801.015,22.461,29.297,30.762,27.344,8.301
1643438801.018,23.926,26.855,28.320,29.297,27.832
1643438801.022,20.996,25.391,29.785,22.461,34.668
1643438801.026,23.438,24.902,29.297,23.926,47.852
1643438801.030,29.297,24.414,30.762,25.391,8.789
1643438801.034,26.855,23.926,33.691,22.949,20.020
1643438801.038,25.391,24.902,33.691,24.902,38.574
1643438801.040,28.320,24.902,31.738,30.762,-0.488
1643438801.044,24.902,23.926,31.250,26.367,25.391
1643438801.048,25.879,24.902,34.180,20.020,45.898
1643438801.052,28.320,26.367,34.180,23.438,31.250
1643438801.056,26.855,25.879,35.156,28.809,45.410
1643438801.060,24.414,23.926,31.250,22.461,96.680
1643438801.063,23.438,25.879,27.832,19.531,40.039
1643438801.067,29.785,29.297,31.738,27.832,21.484
1643438801.071,30.273,30.762,27.344,22.949,60.059
1643438801.075,27.344,28.809,26.855,17.578,33.203
1643438801.079,29.785,26.855,32.227,19.531,11.230
1643438801.083,25.391,26.367,33.203,16.602,17.090
1643438801.100,22.461,24.902,30.762,13.672,31.738
1643438801.104,28.320,25.391,29.297,17.090,52.246
1643438801.108,31.250,25.879,31.250,19.043,13.184
1643438801.112,25.879,27.344,26.855,17.090,-19.043
1643438801.116,23.926,27.832,24.902,16.602,5.371
1643438801.120,24.902,25.879,28.809,21.973,27.832
1643438801.123,26.855,26.855,28.809,20.996,59.082
1643438801.127,27.832,25.879,30.762,16.602,59.570
1643438801.131,24.902,25.879,34.180,16.602,33.691
1643438801.135,20.996,27.832,31.738,17.090,36.621
1643438801.139,20.996,28.809,34.180,18.066,2.930
1643438801.143,23.438,29.785,36.621,18.555,-25.391
1643438801.146,22.461,27.344,31.250,13.672,-17.090
1643438801.150,21.484,25.391,28.809,12.207,-7.324
1643438801.154,20.508,26.367,30.273,17.578,34.668
1643438801.158,19.531,23.926,33.691,21.484,49.805
1643438801.162,21.973,21.484,31.738,23.438,29.785
1643438801.166,20.996,24.414,29.297,17.578,9.766
1643438801.169,23.438,26.855,34.668,17.578,41.504
1643438801.173,26.367,27.832,34.668,21.973,5.859
1643438801.177,24.902,27.832,29.297,20.996,-14.160
1643438801.181,24.414,27.832,28.809,20.996,-24.414
1643438801.185,26.855,29.785,31.738,21.484,-0.977
1643438801.189,28.320,30.273,31.738,21.973,65.430
1643438801.190,23.926,27.344,29.785,19.531,55.664
1643438801.194,20.508,25.879,30.273,19.531,50.781
1643438801.198,21.484,27.832,29.785,20.508,48.828
1643438801.202,26.367,27.832,28.809,21.973,25.879
1643438801.206,27.832,26.855,31.250,28.320,21.484
1643438801.210,25.391,25.879,32.227,25.879,8.301
1643438801.213,18.066,24.414,33.203,19.043,32.227
1643438801.217,18.555,23.926,35.645,22.461,85.938
1643438801.221,21.484,27.344,32.227,21.973,54.199
1643438801.225,19.531,27.344,32.227,19.043,15.137
1643438801.229,27.344,27.344,32.227,23.926,23.926
1643438801.233,27.344,28.809,31.738,25.391,-3.418
1643438801.235,20.996,30.762,33.203,15.625,-18.555
1643438801.239,30.273,30.273,34.180,18.555,2.441
1643438801.243,31.738,28.809,37.598,21.973,-2.441
1643438801.247,23.926,31.738,33.203,20.508,-7.812
1643438801.251,25.879,30.273,32.227,19.531,8.301
1643438801.255,22.949,27.832,34.180,17.578,-2.930
1643438801.258,21.484,26.367,32.715,19.531,3.906
1643438801.262,17.578,23.926,31.738,20.508,-1.953
1643438801.266,16.113,23.926,29.785,20.508,-0.488
1643438801.270,21.484,25.391,30.762,20.020,41.504
1643438801.274,13.672,24.902,30.762,15.137,50.781
1643438801.278,14.160,22.461,27.344,19.531,37.598
1643438801.280,22.949,24.414,26.367,21.973,47.852
1643438801.284,22.461,25.391,27.832,18.066,41.992
1643438801.288,18.066,21.973,27.832,23.438,24.902
1643438801.292,14.648,24.902,28.320,20.996,42.969
1643438801.296,17.578,26.367,33.691,18.066,78.613
1643438801.300,21.484,21.973,35.156,20.508,102.051
1643438801.303,18.066,19.531,34.668,24.414,39.551
1643438801.307,10.742,20.508,31.738,22.461,23.438
1643438801.311,18.066,18.066,33.203,21.484,68.359
1643438801.315,26.367,20.508,34.668,23.438,78.613
1643438801.319,29.785,23.438,31.250,25.391,47.363
1643438801.323,28.809,23.438,29.297,23.926,-7.324
1643438801.325,21.973,25.391,32.715,20.020,11.230
1643438801.329,25.879,25.879,34.668,27.344,28.320
1643438801.333,28.809,23.926,28.320,26.367,69.336
1643438801.337,30.273,23.438,29.785,23.926,75.195
1643438801.341,31.250,25.391,34.180,25.879,-10.254
1643438801.345,28.809,26.367,32.227,28.809,-9.277
1643438801.348,28.809,29.297,30.273,32.227,26.855
1643438801.352,26.855,29.785,31.738,23.926,52.246
1643438801.356,23.926,30.273,30.762,21.484,56.152
1643438801.360,28.809,33.691,26.855,35.156,66.406
1643438801.364,29.785,35.645,28.809,35.156,53.223
1643438801.368,30.273,31.738,31.738,24.414,32.227
1643438801.371,33.203,29.297,27.344,22.949,26.855
1643438801.375,32.715,28.809,26.855,23.926,22.461
1643438801.379,35.156,30.273,30.273,26.855,25.391
1643438801.383,35.645,32.715,31.738,27.832,12.695
1643438801.387,28.320,28.809,36.133,23.438,61.035
1643438801.391,19.531,27.344,34.180,18.066,67.383
1643438801.394,18.066,28.809,29.785,17.578,35.156
1643438801.398,21.973,28.320,34.668,19.043,31.250
1643438801.402,26.367,28.809,39.551,18.066,35.645
1643438801.406,32.715,29.297,36.133,26.367,17.578
1643438801.410,37.598,27.832,35.645,32.715,44.922
1643438801.414,30.273,25.391,38.086,21.484,59.082
1643438801.430,22.461,24.414,36.621,23.926,39.062
1643438801.434,26.367,27.832,33.691,27.832,20.508
1643438801.438,25.391,30.762,33.691,20.996,22.461
1643438801.442,19.531,29.297,35.645,18.555,46.875
1643438801.446,21.484,28.320,36.133,15.137,19.043
1643438801.450,24.414,24.414,34.668,18.555,-1.465
1643438801.453,24.414,23.438,32.715,19.531,16.113
1643438801.457,20.996,25.391,36.621,18.066,2.441
1643438801.461,20.996,23.438,37.109,22.949,-18.066
1643438801.465,23.438,23.926,32.227,24.902,-20.508
1643438801.469,20.996,24.902,31.250,24.902,-35.156
1643438801.473,19.531,22.949,32.715,26.855,-0.488
1643438801.475,24.902,20.996,33.203,24.902,1.953
1643438801.479,29.297,21.484,35.156,23.926,13.184
1643438801.483,21.973,23.926,35.645,21.973,30.273
1643438801.487,23.926,23.926,34.668,23.926,-17.578
1643438801.491,24.902,22.461,37.598,23.438,11.230
1643438801.495,20.020,24.414,35.156,19.043,68.848
1643438801.498,27.344,27.832,29.297,23.438,53.711
1643438801.502,30.273,27.344,31.738,26.367,57.617
1643438801.506,28.320,28.320,37.598,30.273,75.684
1643438801.510,25.879,29.297,35.645,27.832,31.738
1643438801.514,25.391,26.855,31.738,21.973,-15.137
1643438801.518,26.367,25.391,33.203,23.438,59.570
1643438801.520,25.879,23.926,31.738,22.461,55.664
1643438801.524,26.367,23.438,32.715,25.391,0.488
1643438801.528,24.414,25.391,34.668,27.344,-3.418
1643438801.532,24.902,25.879,30.762,20.996,13.672
1643438801.536,21.973,24.414,29.297,16.602,66.406
1643438801.540,19.531,26.367,31.250,17.090,72.266
1643438801.543,18.555,27.832,38.574,18.066,31.250
1643438801.547,20.020,27.832,40.039,14.648,23.926
1643438801.551,23.926,25.391,29.297,20.508,34.668
1643438801.555,18.555,24.414,31.738,22.949,63.477
1643438801.559,17.090,25.879,37.109,12.695,31.738
1643438801.563,21.484,29.785,33.203,13.184,29.297
1643438801.565,21.484,27.832,31.250,16.602,61.035
1643438801.569,21.484,27.832,34.180,18.555,12.695
1643438801.573,19.531,31.738,33.691,15.137,45.410
1643438801.577,20.508,25.879,32.715,16.113,41.504
1643438801.581,20.508,21.973,31.738,18.555,-18.066
1643438801.585,21.973,25.879,31.250,20.996,35.156
1643438801.588,22.949,29.297,32.715,27.344,65.430
1643438801.592,20.508,26.855,32.227,21.973,81.543
1643438801.596,19.043,26.367,27.344,18.066,34.668
1643438801.600,22.949,26.855,29.785,21.973,-32.715
1643438801.604,29.297,27.344,35.156,18.066,0.488
1643438801.608,31.250,30.273,34.668,22.949,52.246
1643438801.611,30.762,30.762,31.250,35.156,24.414
1643438801.615,30.273,29.785,27.344,30.762,6.348
1643438801.619,24.414,27.344,34.180,22.461,64.941
1643438801.623,22.461,25.391,34.668,25.879,47.852
1643438801.627,21.484,26.367,31.250,24.902,-11.230
1643438801.631,20.996,25.879,32.715,14.648,-4.395
1643438801.634,25.879,25.391,29.297,17.090,8.789
1643438801.638,24.414,25.879,28.809,24.902,-1.953
1643438801.642,19.043,27.344,31.738,21.973,20.020
1643438801.646,15.137,28.320,30.762,15.625,74.219
1643438801.650,18.555,26.855,27.832,20.020,61.523
1643438801.654,23.438,26.855,29.785,23.438,42.969
1643438801.655,20.996,25.879,30.273,18.066,48.828
1643438801.659,20.996,27.344,31.738,17.578,-4.883
1643438801.663,23.438,27.832,34.668,19.043,2.930
1643438801.667,20.508,26.367,34.180,16.602,20.020
1643438801.671,20.508,27.832,33.203,17.090,20.508
1643438801.675,18.555,29.297,33.691,17.578,54.199
1643438801.678,26.367,30.762,29.785,20.996,72.754
1643438801.682,35.156,28.809,29.297,21.484,35.156
1643438801.686,27.832,28.809,34.180,18.555,4.883
1643438801.690,22.461,30.762,34.668,21.973,20.020
1643438801.694,28.320,28.809,30.273,26.855,55.664
1643438801.698,29.297,27.832,33.691,27.344,53.223
1643438801.700,21.484,26.855,38.086,20.996,69.336
1643438801.704,24.414,27.832,28.809,20.508,54.688
1643438801.708,29.785,29.297,25.879,22.461,18.555
1643438801.712,30.273,26.855,29.297,20.996,42.480
1643438801.716,26.367,29.297,30.762,22.461,13.184
1643438801.720,29.297,30.273,32.227,25.391,14.160
1643438801.723,25.391,27.344,29.785,20.020,77.637
1643438801.727,21.484,26.367,28.320,19.043,68.848
1643438801.731,24.902,29.297,27.832,27.832,40.527
1643438801.735,20.996,30.762,27.344,25.879,59.082
1643438801.739,22.949,29.785,26.367,22.461,35.156
1643438801.743,20.996,27.344,28.809,18.555,4.395
1643438801.745,15.625,26.855,34.180,18.066,7.812
1643438801.749,21.484,26.367,35.156,20.020,2.930
1643438801.753,25.391,24.414,34.668,16.602,-18.066
1643438801.757,22.461,24.414,34.668,21.973,11.719
1643438801.761,22.949,24.414,35.156,20.996,43.457
1643438801.765,23.926,24.902,32.715,14.160,0.000
1643438801.768,18.555,23.926,31.250,13.672,6.836
1643438801.772,18.066,25.391,28.809,15.137,9.277
1643438801.776,16.113,25.391,26.855,10.254,25.879
1643438801.780,15.137,24.414,27.832,13.672,54.688
1643438801.784,21.973,27.344,28.320,19.531,24.902
1643438801.788,20.996,24.414,28.320,17.090,29.297
1643438801.790,17.578,19.043,28.320,22.949,51.758
1643438801.794,19.043,19.043,26.367,30.273,48.340
1643438801.798,20.508,21.973,27.832,27.832,26.367
1643438801.802,22.949,21.484,33.691,33.203,50.781
1643438801.806,20.996,20.508,32.715,32.715,48.828
1643438801.810,16.602,21.484,30.762,28.320,39.062
1643438801.813,20.020,23.438,30.762,29.297,36.621
1643438801.817,20.508,24.902,33.691,25.879,22.949
1643438801.821,18.555,23.438,37.598,27.832,63.477
1643438801.825,18.555,24.414,37.109,20.996,29.785
1643438801.829,21.973,25.879,34.180,20.508,3.906
1643438801.833,24.902,25.391,37.109,29.785,77.637
1643438801.849,21.484,27.344,33.203,29.297,61.035
1643438801.853,22.949,28.320,28.809,26.855,18.066
1643438801.857,21.973,28.809,30.273,25.879,57.129
1643438801.861,18.555,27.832,30.762,23.926,66.406
1643438801.865,22.461,26.855,30.273,25.391,57.129
1643438801.869,20.996,28.320,28.320,22.461,28.809
1643438801.872,16.602,28.809,31.250,19.043,19.531
1643438801.876,18.066,25.391,34.180,19.531,37.109
1643438801.880,26.367,24.902,31.250,21.484,7.812
1643438801.884,30.273,26.855,32.715,21.973,9.766
1643438801.888,22.949,30.273,34.180,22.461,42.480
1643438801.892,14.648,31.250,31.738,18.066,41.504
1643438801.895,12.695,31.250,32.715,10.742,41.504
1643438801.899,17.578,29.785,32.227,11.230,14.160
1643438801.903,17.578,32.227,31.738,7.812,0.488
1643438801.907,15.137,34.180,35.156,5.371,21.484
1643438801.911,28.809,29.297,33.691,13.184,-2.930
1643438801.915,39.062,30.762,30.273,20.508,-24.902
1643438801.918,35.156,33.203,32.715,19.531,-1.953
1643438801.922,28.809,30.273,33.691,20.020,32.227
1643438801.926,25.391,30.762,30.762,25.879,24.414
1643438801.930,25.879,30.762,30.273,26.367,-19.531
1643438801.934,19.043,30.273,34.668,25.879,-18.066
1643438801.938,15.625,32.227,34.668,27.832,13.184
1643438801.940,17.090,30.273,31.250,21.973,-22.461
1643438801.944,19.043,30.273,30.762,16.602,-1.465
1643438801.948,19.043,33.691,30.762,14.160,66.895
1643438801.952,20.020,33.203,32.227,15.625,82.520
1643438801.956,26.855,33.203,33.691,23.926,56.152
1643438801.960,32.227,32.227,32.227,25.879,-14.648
1643438801.963,32.715,33.203,32.715,25.391,28.320
1643438801.967,28.809,32.227,32.227,25.391,18.555
1643438801.971,31.250,31.250,28.320,25.391,13.672
1643438801.975,31.250,33.203,30.762,23.438,-16.602
1643438801.979,26.367,31.738,34.668,16.602,-34.180
1643438801.983,25.391,32.227,33.691,20.508,33.691
1643438801.985,26.367,30.273,32.715,21.484,23.438
1643438801.989,25.391,27.832,30.762,22.949,15.137
1643438801.993,23.926,28.809,31.250,22.461,50.293
1643438801.997,26.367,28.809,30.762,17.090,41.016
1643438802.001,33.691,29.297,29.785,23.438,24.414
1643438802.005,29.785,29.297,32.715,19.043,74.707
1643438802.008,25.391,28.809,32.227,14.648,92.773
1643438802.012,21.973,27.344,29.297,22.949,45.410
1643438802.016,14.648,28.320,29.785,27.344,-5.371
1643438802.020,18.066,25.879,36.621,24.414,-14.648
1643438802.024,20.996,26.367,37.109,20.020,26.367
1643438802.028,21.973,28.809,31.250,20.996,13.672
1643438802.030,23.926,26.367,34.180,24.414,-12.207
1643438802.034,23.926,24.902,35.156,23.926,6.836
1643438802.038,22.461,27.344,31.738,25.391,58.105
1643438802.042,22.461,31.250,32.715,18.066,45.410
1643438802.046,24.902,31.250,32.227,14.648,22.461
1643438802.050,27.344,30.762,31.250,20.020,42.480
1643438802.053,25.879,33.691,35.156,20.020,30.273
1643438802.057,22.949,32.227,34.180,11.230,31.738
1643438802.061,21.973,28.320,30.273,10.254,46.387
1643438802.065,19.043,27.344,33.203,17.090,29.297
1643438802.069,20.508,25.391,33.203,20.508,-9.766
1643438802.073,21.973,26.367,35.645,21.973,17.090
1643438802.076,20.996,29.297,37.109,18.066,62.012
1643438802.080,20.508,30.762,34.180,18.066,49.316
1643438802.084,18.066,27.344,32.227,15.625,63.477
1643438802.088,18.066,26.855,31.738,11.719,28.809
1643438802.092,18.555,28.809,35.645,14.648,32.227
1643438802.096,19.043,28.320,35.156,20.508,56.641
1643438802.099,22.949,26.855,32.715,20.020,21.973
1643438802.103,27.344,26.855,31.738,20.020,21.484
1643438802.107,23.438,26.855,35.156,19.531,-7.812
1643438802.111,18.066,26.855,37.109,16.602,10.742
1643438802.115,18.066,25.879,34.668,15.137,44.922
1643438802.119,15.625,27.344,33.691,15.137,-27.344
1643438802.120,19.043,26.855,31.738,21.973,4.883
1643438802.124,26.367,26.367,25.879,22.949,33.691
1643438802.128,24.414,30.273,25.391,21.973,24.902
1643438802.132,27.832,27.344,32.227,27.344,29.297
1643438802.136,30.762,25.391,32.715,23.926,7.324
1643438802.140,32.227,26.367,28.809,24.902,30.762
1643438802.143,32.715,26.367,27.832,30.762,32.715
1643438802.147,26.855,27.344,31.738,27.832,-13.672
1643438802.151,25.879,25.879,33.203,23.926,40.039
1643438802.155,25.879,26.855,27.344,20.508,53.711
1643438802.159,25.391,28.320,25.879,23.438,44.434
1643438802.163,24.414,27.832,25.879,28.320,45.898
1643438802.165,26.367,25.879,24.414,25.879,38.086
1643438802.169,29.785,23.926,27.344,23.438,30.762
1643438802.173,33.203,23.438,30.273,26.367,21.973
1643438802.177,30.273,22.949,30.762,30.762,48.828
1643438802.181,28.809,26.855,30.273,34.668,31.738
1643438802.185,28.809,28.809,28.809,35.645,-10.254
1643438802.188,26.367,25.391,27.832,30.762,11.719
1643438802.192,26.855,23.926,30.762,25.879,19.043
1643438802.196,29.297,23.438,32.715,26.855,1.953
1643438802.200,30.762,23.926,30.762,29.785,13.184
1643438802.204,32.227,24.414,31.250,33.203,26.855
1643438802.208,30.762,23.926,34.668,37.598,21.973
1643438802.225,28.320,21.973,36.133,35.645,49.805
1643438802.229,26.855,19.531,37.109,30.273,40.527
1643438802.233,26.367,20.508,33.691,27.344,10.254
1643438802.237,24.414,20.508,31.738,23.438,29.297
1643438802.241,28.320,21.484,33.691,27.832,73.730
1643438802.245,31.250,24.902,34.180,30.273,78.613
1643438802.248,29.297,24.902,33.691,27.832,53.711
1643438802.252,26.855,26.367,33.203,24.414,53.223
1643438802.256,22.949,28.320,36.621,19.043,22.461
1643438802.260,24.414,27.832,38.086,22.461,25.879
1643438802.264,26.367,29.785,38.574,25.879,66.406
1643438802.268,21.484,26.367,39.551,24.414,63.965
1643438802.285,24.902,22.949,36.133,25.879,-1.465
1643438802.289,34.668,24.414,33.203,29.785,7.324
1643438802.293,30.273,25.391,34.180,28.320,3.906
1643438802.297,26.367,25.391,28.809,27.344,10.254
1643438802.301,28.809,25.879,28.320,27.832,40.039
1643438802.305,28.320,24.414,29.785,28.809,5.371
1643438802.308,21.973,25.879,31.250,23.438,34.668
1643438802.312,22.461,28.320,30.273,20.020,68.848
1643438802.316,29.785,28.320,25.391,21.973,65.430
1643438802.320,30.273,28.320,24.414,23.926,11.230
1643438802.324,27.832,26.367,30.762,22.949,-52.246
1643438802.328,24.414,26.367,32.715,18.555,9.277
1643438802.314,24.902,28.809,31.738,15.137,49.316
1643438802.318,23.926,29.785,32.715,18.555,56.641
1643438802.322,13.184,30.273,32.715,20.020,18.066
1643438802.326,16.113,29.785,33.203,16.113,-6.348
1643438802.330,25.879,30.762,32.715,18.555,87.891
1643438802.334,32.715,35.156,32.227,26.367,76.660
1643438802.337,29.297,34.180,30.762,21.973,0.488
1643438802.341,19.043,30.273,29.785,13.672,12.695
1643438802.345,23.926,29.785,28.320,15.625,61.035
1643438802.349,26.855,32.715,26.855,12.207,109.863
1643438802.353,23.926,33.203,28.809,11.719,103.516
1643438802.357,22.949,30.762,24.902,13.672,43.457
1643438802.360,26.855,28.809,18.555,16.113,-19.531
1643438802.364,24.414,29.297,25.879,21.484,-14.648
1643438802.368,16.602,28.320,31.250,20.508,17.578
1643438802.372,22.461,27.344,24.902,18.066,14.648
1643438802.376,26.855,28.320,22.949,21.973,45.410
1643438802.380,21.973,28.320,24.902,28.320,46.387
1643438802.383,18.555,25.391,26.855,24.414,36.133
1643438802.387,20.996,25.391,27.344,21.484,81.055
1643438802.391,19.043,28.809,28.320,19.043,47.852
1643438802.395,16.113,25.879,29.785,15.625,35.645
1643438802.399,20.508,25.391,29.297,15.137,82.031
1643438802.403,28.320,27.832,28.809,20.020,48.340
1643438802.405,32.715,26.855,29.785,20.996,23.438
1643438802.409,33.691,26.855,30.762,22.949,52.734
1643438802.413,34.668,26.367,35.156,28.320,45.898
1643438802.417,31.250,23.926,38.574,22.949,15.137
1643438802.421,27.344,21.973,36.621,21.484,28.320
1643438802.425,24.414,19.531,34.180,25.391,32.715
1643438802.428,21.973,19.043,35.156,21.484,19.043
1643438802.432,21.973,24.414,33.691,18.066,44.922
1643438802.436,23.438,24.902,35.156,17.090,35.156
1643438802.440,22.949,22.461,37.109,17.578,-11.719
1643438802.444,25.391,24.414,32.227,17.578,0.977
1643438802.448,28.809,27.344,29.785,17.578,49.805
1643438802.450,28.809,27.344,30.762,20.020,79.102
1643438802.454,25.391,25.879,31.250,20.996,33.203
1643438802.458,20.996,24.902,34.180,15.625,-2.441
1643438802.462,19.043,22.461,33.691,14.648,35.645
1643438802.466,21.484,24.414,31.250,18.555,41.992
1643438802.470,22.461,25.879,31.250,17.578,-2.441
1643438802.473,21.973,26.367,30.762,18.555,-16.113
1643438802.477,25.879,26.855,30.273,25.879,3.906
1643438802.481,26.855,28.320,33.203,26.367,-7.812
1643438802.485,21.973,30.273,32.715,22.949,-13.184
1643438802.489,22.461,27.832,28.809,19.531,2.930
1643438802.493,26.855,25.391,29.785,20.508,38.086
1643438802.495,27.344,24.902,29.785,21.484,83.008
1643438802.499,23.926,25.879,26.855,20.020,50.293
1643438802.503,25.391,27.344,26.855,20.508,-16.113
1643438802.507,28.809,28.809,26.367,18.555,-5.859
1643438802.511,25.391,27.344,28.320,18.555,56.641
1643438802.515,22.461,25.879,31.250,19.531,47.852
1643438802.518,20.508,24.902,28.320,16.602,-12.695
1643438802.522,21.484,27.344,27.832,23.926,-39.551
1643438802.526,24.902,27.832,33.691,25.391,56.152
1643438802.530,23.438,27.832,30.762,18.066,47.363
1643438802.534,23.926,29.785,27.344,18.066,40.527
1643438802.538,22.461,29.297,27.832,20.508,55.176
1643438802.555,22.461,28.809,28.320,25.391,3.418
1643438802.559,27.344,31.738,27.832,28.809,7.812
1643438802.563,22.949,29.785,26.855,24.414,2.930
1643438802.567,20.996,26.855,27.344,20.996,33.691
1643438802.571,20.508,28.320,28.320,19.043,60.059
1643438802.575,20.996,27.832,26.855,19.531,4.395
1643438802.578,25.879,29.297,26.367,21.484,-37.109
1643438802.582,24.414,31.250,29.297,18.066,1.953
1643438802.586,20.996,26.367,30.273,15.137,47.363
1643438802.590,22.949,24.902,29.297,14.648,37.598
1643438802.594,26.855,26.855,29.785,16.113,4.395
1643438802.598,25.879,26.855,28.809,17.578,43.457
1643438802.600,22.949,27.344,28.320,18.066,46.875
1643438802.604,22.461,28.809,27.832,14.160,5.859
1643438802.608,16.602,31.250,28.320,9.277,-22.949
1643438802.612,14.648,30.273,28.809,15.625,-38.086
1643438802.616,11.230,27.344,27.832,14.160,19.043
1643438802.620,7.812,25.879,26.855,7.812,47.852
1643438802.623,9.766,27.832,24.902,4.395,22.461
1643438802.627,9.277,24.902,28.809,3.418,43.945
1643438802.631,14.648,27.832,32.715,7.812,41.992
1643438802.635,20.508,33.203,28.809,8.301,40.039
1643438802.639,26.367,34.668,26.855,13.184,20.996
1643438802.643,23.438,32.715,32.227,15.137,54.688
1643438802.645,20.508,34.180,29.297,8.789,44.434
1643438802.649,20.996,34.180,30.273,2.930,3.418
1643438802.653,23.926,35.645,41.992,13.672,12.207
1643438802.657,24.902,33.691,40.039,19.531,-2.441
1643438802.661,22.949,31.250,31.738,17.578,18.555
1643438802.665,20.508,35.156,29.297,14.648,28.320
1643438802.668,16.113,31.250,30.762,15.137,30.273
1643438802.672,15.137,31.738,32.715,17.578,6.348
1643438802.676,18.066,33.691,31.250,16.113,-19.531
1643438802.680,8.301,33.691,35.156,4.883,37.109
1643438802.684,-4.395,32.227,44.922,-7.812,71.777
1643438802.688,5.859,35.645,39.551,1.953,6.836
1643438802.690,10.742,37.598,40.039,8.789,9.766
1643438802.694,4.883,35.645,42.480,5.859,31.250
1643438802.698,5.859,37.598,39.551,8.301,37.109
1643438802.702,-7.812,38.574,41.504,-12.695,50.293
1643438802.706,-10.254,38.574,42.969,-19.531,50.293
1643438802.710,5.859,36.133,43.457,3.418,70.312
1643438802.713,6.836,34.180,44.434,9.277,90.332
1643438802.717,5.859,35.645,41.992,3.418,80.566
1643438802.721,8.789,33.203,39.551,0.488,58.594
1643438802.725,10.742,29.785,38.574,2.441,67.383
1643438802.729,10.254,29.297,36.621,7.812,32.715
1643438802.733,7.324,28.320,34.668,11.230,-12.207
1643438802.735,12.695,23.438,33.691,12.207,-19.043
1643438802.739,20.996,23.926,36.621,20.996,27.344
1643438802.743,20.508,24.902,37.109,22.461,41.992
1643438802.747,20.020,21.973,31.738,18.066,-12.207
1643438802.751,31.250,22.949,32.227,28.809,-32.715
1643438802.755,35.645,23.926,29.785,29.785,14.648
1643438802.758,30.762,22.949,26.855,21.484,36.133
1643438802.762,38.574,23.926,23.926,28.320,27.832
1643438802.766,42.480,26.367,25.879,27.344,42.969
1643438802.770,42.480,29.785,27.832,25.879,54.688
1643438802.774,40.039,26.855,23.926,34.180,7.812
1643438802.778,36.133,24.414,25.391,36.621,32.715
1643438802.780,39.062,24.414,25.391,35.156,55.664
1643438802.784,43.457,23.438,23.926,34.180,20.508
1643438802.788,43.457,22.949,22.461,33.203,16.602
1643438802.792,44.922,22.949,19.531,38.086,-2.441
1643438802.796,49.805,22.461,20.020,41.016,-32.715
1643438802.800,49.316,23.926,23.438,40.039,-7.324
1643438802.803,44.922,22.461,26.367,43.945,32.715
1643438802.807,40.039,21.484,21.973,46.875,5.859
1643438802.811,40.527,23.926,21.973,41.992,6.348
1643438802.815,42.969,26.855,27.832,40.039,55.176
1643438802.819,41.992,25.879,25.391,39.551,-0.488
1643438802.823,33.691,25.391,22.461,35.156,-55.176
1643438802.825,32.715,26.855,21.484,35.156,-21.973
1643438802.829,37.109,23.926,21.973,38.086,53.711
1643438802.833,39.062,20.996,20.508,42.969,0.000
1643438802.837,37.109,21.973,22.461,41.504,-11.230
1643438802.841,28.320,22.949,23.926,29.785,48.340
1643438802.845,29.785,20.996,20.996,26.855,17.578
1643438802.848,35.156,21.973,19.043,32.715,24.902
1643438802.852,31.738,23.438,21.973,31.738,40.527
1643438802.856,29.297,21.973,28.809,36.133,64.453
1643438802.860,33.691,20.020,24.902,42.969,70.801
1643438802.864,34.668,21.484,22.461,41.504,20.996
1643438802.868,29.297,23.926,27.344,36.621,9.277
1643438802.870,26.367,25.879,31.250,32.227,46.875
1643438802.874,27.344,24.902,29.785,33.203,7.812
1643438802.878,31.250,24.902,22.949,31.250,-22.949
1643438802.882,28.320,26.367,27.344,25.879,13.184
1643438802.886,28.809,25.391,28.320,25.879,31.738
1643438802.890,34.180,26.855,25.391,30.762,28.809
1643438802.893,25.879,29.297,24.414,25.391,13.672
1643438802.897,18.066,28.320,28.809,17.090,15.137
1643438802.901,24.414,26.855,35.156,21.973,68.848
1643438802.905,32.715,26.367,31.738,31.738,111.816
1643438802.909,30.762,25.391,31.250,33.203,81.543
1643438802.913,28.809,27.832,30.762,34.668,59.082
1643438802.915,31.250,26.855,26.855,28.320,42.969
1643438802.919,29.297,25.879,29.297,25.391,9.277
1643438802.923,29.297,25.879,33.691,30.273,34.180
1643438802.927,34.180,27.832,34.668,28.320,60.059
1643438802.931,28.809,28.320,32.715,28.809,37.109
1643438802.935,18.066,25.879,29.785,25.391,7.812
1643438802.938,17.090,25.391,30.273,23.926,38.086
1643438802.942,18.066,25.879,33.691,21.484,95.703
1643438802.946,23.926,25.391,32.227,19.531,68.359
1643438802.950,26.855,24.902,28.320,21.973,44.922
1643438802.954,25.391,21.973,25.391,23.438,50.781
1643438802.958,26.855,21.484,26.855,25.391,41.016
1643438802.975,25.879,23.438,30.273,24.414,17.090
1643438802.979,24.414,26.855,29.297,25.879,6.348
1643438802.983,23.438,27.344,28.320,32.227,1.465
1643438802.987,24.414,25.879,30.762,32.715,9.766
1643438802.991,24.902,28.320,34.668,26.367,4.395
1643438802.995,23.926,28.320,33.203,20.996,6.836
1643438802.998,26.367,29.785,28.320,22.461,24.414
1643438803.002,33.203,32.227,28.320,28.809,21.484
1643438803.006,29.297,30.273,28.809,26.855,22.949
1643438803.010,24.414,28.809,29.297,20.020,27.344
1643438803.014,25.391,29.785,29.297,19.531,49.316
1643438803.018,26.367,31.738,27.344,24.414,41.016
1643438803.021,23.926,31.250,28.320,22.949,59.082
1643438803.025,22.461,29.785,30.273,19.531,26.855
1643438803.029,30.273,31.738,32.227,24.414,1.465
1643438803.033,30.762,32.715,31.738,28.320,36.621
1643438803.037,31.250,32.227,28.809,25.879,53.711
1643438803.041,32.227,31.250,30.762,21.484,39.062
1643438803.044,31.738,33.203,29.785,20.996,11.719
1643438803.048,26.855,32.715,25.879,24.414,-0.488
1643438803.052,27.832,29.785,22.949,23.438,34.180
1643438803.056,31.250,29.297,20.996,19.531,30.273
1643438803.060,24.902,28.320,25.879,16.602,13.672
1643438803.064,23.438,26.367,24.902,16.602,20.996
1643438803.065,25.879,26.367,23.438,19.043,8.789
1643438803.069,26.367,28.320,25.391,14.160,20.020
1643438803.073,25.879,27.832,28.320,14.160,15.137
1643438803.077,28.320,28.320,28.809,22.461,25.391
1643438803.081,26.855,33.691,25.391,19.531,64.453
1643438803.085,24.902,35.645,22.949,19.043,52.734
1643438803.088,29.297,30.762,24.414,21.973,16.602
1643438803.092,27.832,29.297,24.902,21.973,-17.090
1643438803.096,22.949,30.762,23.438,25.879,-20.508
1643438803.100,24.902,28.320,27.344,31.250,78.613
1643438803.104,25.879,25.391,31.250,29.785,48.828
1643438803.108,21.973,24.902,29.785,21.973,5.371
1643438803.110,23.926,24.902,30.273,22.949,8.789
1643438803.114,26.367,25.391,31.250,31.738,15.137
1643438803.118,21.484,24.414,30.273,28.809,12.207
1643438803.122,20.020,24.902,26.855,20.508,0.000
1643438803.126,22.949,28.320,25.391,20.996,61.523
1643438803.130,19.043,29.297,26.855,23.438,21.973
1643438803.133,20.996,27.344,26.855,23.438,1.953
1643438803.137,24.414,25.879,24.414,25.391,22.461
1643438803.141,23.438,24.414,21.973,26.855,-4.883
1643438803.145,21.973,25.879,26.855,21.484,-4.395
1643438803.149,19.531,26.855,30.273,20.020,26.855
1643438803.153,20.020,26.367,27.832,25.391,41.504
1643438803.155,20.020,26.367,28.809,20.996,39.062
1643438803.159,24.902,25.391,29.785,20.508,20.508
1643438803.163,24.902,24.414,27.344,23.926,43.945
1643438803.167,15.137,23.926,30.762,18.066,56.641
1643438803.171,12.207,26.367,32.715,16.602,31.250
1643438803.175,15.137,28.320,31.250,19.531,35.156
1643438803.178,16.602,26.855,34.668,21.973,61.035
1643438803.182,16.113,24.902,32.227,21.973,52.734
1643438803.186,19.531,25.391,30.762,16.113,14.648
1643438803.190,24.414,26.367,32.715,17.578,23.926
1643438803.194,21.973,27.344,29.785,18.066,65.918
1643438803.198,20.996,28.809,32.227,19.531,52.734
1643438803.200,23.438,29.297,37.109,24.414,17.090
1643438803.204,26.367,30.762,35.645,26.367,42.969
1643438803.208,30.273,31.738,32.227,31.250,50.293
1643438803.212,30.762,30.273,30.762,30.273,38.574
1643438803.216,27.832,28.809,30.762,26.855,-19.043
1643438803.220,27.832,29.785,29.297,27.832,-2.441
1643438803.223,31.738,31.250,24.414,26.855,56.641
1643438803.227,30.762,32.715,25.391,24.414,7.812
1643438803.231,24.414,31.738,31.250,23.926,17.578
1643438803.235,24.902,26.855,33.691,19.531,26.855
1643438803.239,29.785,27.832,32.715,23.438,14.160
1643438803.243,31.738,31.250,28.809,31.250,12.207
1643438803.246,30.273,32.227,29.785,30.762,15.625
1643438803.250,26.367,32.227,31.738,24.902,-3.418
1643438803.254,29.297,33.203,25.391,18.555,35.156
1643438803.258,32.715,31.738,27.344,18.555,82.031
1643438803.262,34.668,28.809,33.203,23.926,51.270
1643438803.266,38.086,30.273,31.250,30.273,46.387
1643438803.269,37.109,30.762,30.273,33.203,62.988
1643438803.273,32.227,28.809,33.691,32.227,-3.906
1643438803.277,25.879,28.320,34.668,27.832,-17.578
1643438803.281,23.926,25.879,29.785,24.414,41.504
1643438803.285,21.973,28.809,27.344,17.578,42.480
1643438803.289,15.137,30.273,29.297,9.766,47.852
1643438803.291,20.020,29.297,31.250,17.578,61.035
1643438803.295,21.484,29.785,28.809,20.020,48.340
1643438803.299,18.555,27.344,28.809,15.137,11.230
1643438803.303,20.508,27.832,33.691,16.113,38.086
1643438803.307,21.973,29.785,36.133,20.996,29.297
1643438803.311,23.438,28.809,36.133,20.996,23.926
1643438803.314,24.414,29.297,31.250,19.531,51.758
1643438803.318,24.414,31.738,32.227,18.555,-4.395
1643438803.322,23.926,33.691,34.180,16.602,-0.488
1643438803.326,22.461,32.227,34.668,18.066,24.414
1643438803.330,20.996,31.738,36.133,20.996,15.137
1643438803.334,20.996,30.762,35.645,24.902,30.762
1643438803.350,21.973,29.297,36.133,27.832,40.527
1643438803.354,23.926,32.227,35.156,26.367,4.395
1643438803.358,28.320,29.297,35.156,26.855,-6.836
1643438803.362,29.785,27.344,37.598,28.320,2.930
1643438803.366,25.879,29.785,31.738,26.367,29.297
1643438803.370,25.879,31.738,28.809,26.855,28.809
1643438803.373,23.438,34.180,31.738,20.508,-7.324
1643438803.377,21.973,33.691,32.715,17.578,-12.207
1643438803.381,22.949,32.227,31.738,22.949,7.324
1643438803.385,20.508,29.785,31.250,21.973,10.254
1643438803.389,17.578,29.297,32.715,24.414,10.254
1643438803.393,15.137,27.344,31.250,20.996,5.371
1643438803.395,16.602,28.809,26.367,18.555,31.250
1643438803.399,20.020,31.250,26.367,27.344,-9.766
1643438803.403,22.949,29.297,31.738,27.344,18.555
1643438803.407,24.902,31.738,31.250,23.926,69.336
1643438803.411,24.414,33.691,29.785,20.508,24.902
1643438803.415,19.531,31.738,30.273,19.531,-2.930
1643438803.418,19.043,29.297,31.250,27.344,58.594
1643438803.422,23.926,28.809,33.691,28.809,59.082
1643438803.426,23.926,29.297,31.738,23.926,22.461
1643438803.430,24.902,29.785,28.809,23.438,28.809
1643438803.434,29.785,30.762,29.785,25.391,21.484
1643438803.438,27.344,31.738,29.297,27.344,41.504
1643438803.440,24.414,29.297,26.855,28.809,44.434
1643438803.444,32.227,28.809,30.762,34.180,40.527
1643438803.448,33.691,29.297,32.715,33.203,0.488
1643438803.452,34.180,28.320,30.273,31.738,29.297
1643438803.456,39.062,30.762,30.762,38.086,54.199
1643438803.460,36.621,32.227,31.250,33.203,3.418
1643438803.463,34.180,31.738,31.250,25.391,32.715
1643438803.467,39.062,31.738,32.227,29.785,20.508
1643438803.471,39.551,31.250,33.203,30.762,21.484
1643438803.475,34.180,32.715,33.203,24.902,31.250
1643438803.479,31.738,33.203,31.738,23.438,54.688
1643438803.483,31.250,31.738,29.785,25.879,69.824
1643438803.485,33.203,30.762,28.320,26.367,51.270
1643438803.489,30.762,27.344,30.273,22.949,22.949
1643438803.493,31.250,27.344,29.297,25.879,10.254
1643438803.497,39.062,26.855,28.320,39.551,41.016
1643438803.501,36.621,24.414,30.762,36.133,4.395
1643438803.505,25.391,27.832,32.227,19.531,-37.598
1643438803.508,20.508,31.250,31.738,18.066,10.742
1643438803.512,15.625,28.320,29.785,16.113,13.672
1643438803.516,9.277,25.879,30.273,7.812,-17.578
1643438803.520,10.254,27.832,34.180,6.348,11.230
1643438803.524,18.066,31.250,29.785,18.555,-9.277
1643438803.528,23.926,29.785,29.785,28.809,58.105
1643438803.530,24.414,25.391,31.738,22.461,91.309
1643438803.534,26.367,27.344,27.832,16.602,5.371
1643438803.538,24.902,27.832,26.855,17.578,34.668
1643438803.542,24.414,26.855,25.391,18.555,55.664
1643438803.546,23.926,28.809,21.973,17.090,7.812
1643438803.550,20.996,29.785,25.391,16.113,61.035
1643438803.553,20.020,28.809,28.809,17.090,66.895
1643438803.557,16.602,29.785,24.414,15.625,25.391
1643438803.561,14.648,29.297,22.949,12.695,6.348
1643438803.565,14.648,27.344,26.855,17.578,44.434
1643438803.569,11.719,27.344,27.344,17.578,56.641
1643438803.573,18.555,25.391,28.809,19.531,47.852
1643438803.575,24.902,24.902,28.320,21.973,46.387
1643438803.579,19.043,24.414,28.809,18.555,34.180
1643438803.583,19.531,26.855,30.762,21.484,36.133
1643438803.587,20.020,27.344,30.273,20.020,9.277
1643438803.591,20.020,24.902,28.320,21.973,7.812
1643438803.595,20.996,25.879,27.832,23.926,31.250
1643438803.598,22.461,27.832,29.297,20.508,32.227
1643438803.602,23.926,28.809,28.809,21.484,47.852
1643438803.606,20.508,28.809,31.250,21.484,69.824
1643438803.610,18.555,29.297,31.250,20.020,54.199
1643438803.614,23.926,28.320,29.785,22.949,33.691
1643438803.618,28.809,28.320,31.738,24.414,18.555
1643438803.620,26.367,29.785,32.715,23.438,23.438
1643438803.624,26.367,30.762,30.273,26.367,26.367
1643438803.628,27.344,31.250,32.715,28.809,29.785
1643438803.632,23.438,30.762,34.668,25.391,6.836
1643438803.636,22.461,29.785,30.273,25.879,21.484
1643438803.640,19.043,25.391,30.273,24.902,36.621
1643438803.643,21.484,26.855,32.227,26.367,41.992
1643438803.647,27.832,32.227,30.273,31.738,51.270
1643438803.651,23.926,28.320,32.227,29.297,29.297
1643438803.655,20.508,28.809,30.273,23.438,33.203
1643438803.659,23.926,31.250,26.855,24.414,20.020
1643438803.663,26.367,29.785,31.738,25.879,36.133
1643438803.665,23.926,29.297,33.691,20.996,61.035
1643438803.669,23.438,27.344,29.785,23.926,34.668
1643438803.673,22.461,27.344,31.738,30.273,14.648
1643438803.677,28.320,30.273,32.715,27.832,20.508
1643438803.681,26.367,30.762,30.762,21.973,36.133
1643438803.685,22.949,28.320,26.367,23.926,11.719
1643438803.688,29.297,28.320,26.855,31.738,-17.090
1643438803.692,26.367,28.320,34.668,29.297,23.926
1643438803.696,21.484,26.855,33.691,23.926,14.648
1643438803.700,25.879,28.320,29.785,25.391,33.203
1643438803.704,24.414,28.320,29.297,29.785,38.574
1643438803.708,21.973,24.902,28.809,25.879,12.207
1643438803.726,22.949,26.855,28.809,17.578,7.324
1643438803.730,21.973,28.809,31.738,15.625,-14.160
1643438803.734,20.508,26.855,34.668,17.578,28.809
1643438803.738,20.508,27.344,32.227,16.602,92.285
1643438803.742,19.043,26.367,29.297,20.508,34.668
1643438803.746,21.484,26.367,29.297,21.973,33.691
1643438803.749,26.367,27.832,31.250,16.602,51.758
1643438803.753,27.832,28.809,31.250,20.020,26.367
1643438803.757,25.391,30.273,27.344,20.508,33.203
1643438803.761,24.902,32.227,27.344,19.043,17.578
1643438803.765,27.344,33.203,31.250,20.508,0.488
1643438803.769,25.879,33.691,30.273,17.578,-1.953
1643438803.770,22.461,35.156,26.367,20.508,-9.277
1643438803.774,21.484,32.715,29.785,22.949,8.789
1643438803.778,20.996,28.320,27.832,11.719,-5.859
1643438803.782,22.949,29.297,25.879,12.207,-21.484
1643438803.786,25.391,28.320,29.297,19.531,13.672
1643438803.790,19.531,28.320,29.297,17.090,64.453
1643438803.793,21.484,30.762,29.785,22.461,60.059
1643438803.797,20.020,28.809,29.297,27.832,36.621
1643438803.801,19.043,27.832,29.297,22.949,39.551
1643438803.805,25.391,30.273,28.809,16.602,25.879
1643438803.809,25.391,33.203,28.809,16.113,39.551
1643438803.813,21.484,30.273,26.855,16.602,46.387
1643438803.815,23.926,24.414,22.949,18.555,19.043
1643438803.819,22.949,23.926,22.949,15.137,-1.465
1643438803.823,20.020,26.855,24.902,15.625,25.879
1643438803.827,22.461,29.297,23.926,22.949,8.789
1643438803.831,18.066,27.832,21.484,19.043,-2.441
1643438803.835,17.578,28.320,23.438,22.949,61.523
1643438803.838,20.996,29.297,26.855,27.832,29.785
1643438803.842,21.973,28.320,29.297,25.879,42.480
1643438803.846,25.879,28.320,29.785,22.949,67.871
1643438803.850,29.785,30.273,30.762,24.414,43.457
1643438803.854,26.855,27.344,31.738,23.926,47.363
1643438803.858,23.438,26.855,26.855,15.625,26.855
1643438803.860,23.438,30.273,25.879,18.555,5.371
1643438803.864,24.414,30.762,29.297,18.555,47.363
1643438803.868,26.367,27.832,29.785,19.531,15.625
1643438803.872,29.297,27.832,30.273,20.996,7.812
1643438803.876,26.855,28.320,27.832,15.625,58.105
1643438803.880,24.414,25.879,27.832,17.090,39.551
1643438803.883,25.391,25.879,25.391,21.973,22.461
1643438803.887,21.973,25.879,26.855,23.438,51.758
1643438803.891,16.602,24.902,32.227,20.020,67.871
1643438803.895,13.184,25.391,34.668,18.555,58.594
1643438803.899,11.230,25.391,36.621,18.555,55.664
1643438803.903,14.160,30.273,31.250,15.625,73.730
1643438803.906,16.602,31.250,27.344,11.230,54.688
1643438803.910,14.648,24.414,30.762,14.160,19.531
1643438803.914,21.484,26.855,29.785,20.508,8.301
1643438803.918,24.902,30.273,29.785,21.484,-9.277
1643438803.922,25.391,26.855,35.156,28.809,12.695
1643438803.926,26.367,25.879,33.691,31.738,19.043
1643438803.929,25.391,27.344,31.250,28.809,34.668
1643438803.933,30.273,27.344,32.227,33.691,44.922
1643438803.937,33.203,24.414,36.133,29.785,40.039
1643438803.941,29.785,23.926,36.133,23.926,15.137
1643438803.945,28.320,24.414,31.738,18.066,32.715
1643438803.949,32.715,27.832,30.273,11.719,47.363
1643438803.950,36.133,31.250,27.344,21.973,52.246
1643438803.954,27.344,27.832,28.809,21.973,61.523
1643438803.958,22.949,26.367,27.344,21.484,49.805
1643438803.962,31.250,29.297,27.344,38.086,16.602
1643438803.966,27.344,29.297,33.203,33.203,22.461
1643438803.970,23.438,28.809,36.133,27.344,34.180
1643438803.973,26.855,28.320,33.691,31.738,4.395
1643438803.977,24.414,27.344,34.180,33.691,27.344
1643438803.981,23.926,27.344,37.109,32.715,0.488
1643438803.985,27.832,29.785,34.668,22.461,-4.883
1643438803.989,23.926,30.273,32.715,17.090,40.527
1643438803.993,21.973,28.809,29.785,24.414,27.832
1643438803.995,23.926,29.297,29.297,27.344,46.387
1643438803.999,22.949,31.250,30.273,21.484,20.508
1643438804.003,24.902,29.785,25.391,20.020,32.715
1643438804.007,25.879,28.320,25.391,24.414,42.969
1643438804.011,26.367,29.785,27.344,26.367,-9.766
1643438804.015,25.391,26.855,24.902,24.414,-16.113
1643438804.018,20.996,23.926,23.438,20.996,-8.789
1643438804.022,20.996,25.391,27.832,16.602,16.602
1643438804.026,25.391,24.902,29.785,18.066,54.199
1643438804.030,26.855,25.391,29.785,23.926,56.641
1643438804.034,24.902,27.344,31.738,21.973,37.109
1643438804.038,25.879,26.367,32.227,25.391,48.340
1643438804.040,27.832,24.902,30.762,28.809,48.340
1643438804.044,26.367,25.391,28.809,21.973,32.227
1643438804.048,28.320,27.832,30.273,19.531,-0.488
1643438804.052,26.855,27.832,28.809,22.461,-5.371
1643438804.056,29.785,27.344,27.344,20.020,8.789
1643438804.060,30.273,28.809,28.809,19.043,12.695
1643438804.063,23.438,30.273,30.762,22.949,18.555
1643438804.067,22.949,28.809,37.598,17.578,-21.484
1643438804.071,17.578,24.902,41.504,13.672,-0.488
1643438804.075,13.184,28.320,34.180,18.555,11.719
1643438804.079,13.672,29.297,31.250,21.973,-8.789
1643438804.083,18.555,25.391,34.180,20.020,35.645
1643438804.101,21.973,24.414,32.715,14.648,68.848
1643438804.105,23.438,25.391,31.738,14.648,71.289
1643438804.109,25.391,25.391,32.715,19.043,47.852
1643438804.113,24.414,25.391,31.738,20.508,14.648
1643438804.117,23.926,25.879,27.832,20.508,11.230
1643438804.121,22.461,26.367,25.391,19.531,26.367
1643438804.124,22.949,26.855,27.832,20.996,47.363
1643438804.128,25.391,29.297,27.344,18.555,32.227
1643438804.132,21.973,29.297,26.855,17.578,55.664
1643438804.136,23.438,26.855,28.320,21.484,44.434
1643438804.140,27.344,24.902,29.785,30.762,23.926
1643438804.144,25.391,24.902,30.762,27.832,95.703
1643438804.145,23.926,26.367,27.832,23.438,55.664
1643438804.149,21.973,27.344,25.391,24.902,-16.113
1643438804.153,20.508,25.879,32.715,19.531,-18.066
1643438804.157,23.926,27.832,34.668,19.531,26.855
1643438804.161,27.344,30.273,28.320,23.438,58.594
1643438804.165,28.320,28.320,25.879,24.902,20.020
1643438804.168,23.438,26.367,30.762,18.066,17.090
1643438804.172,17.090,27.344,34.668,17.090,31.738
1643438804.176,23.438,25.879,33.691,21.484,68.848
1643438804.180,24.414,23.926,31.250,20.020,28.320
1643438804.184,15.137,23.438,31.738,13.672,-8.789
1643438804.188,14.160,21.973,31.738,15.137,25.879
1643438804.190,19.531,23.438,29.297,22.461,36.133
1643438804.194,21.484,24.414,28.809,17.578,2.441
1643438804.198,15.137,25.391,26.855,17.090,19.531
1643438804.202,15.137,27.344,27.832,18.066,57.129
1643438804.206,14.160,26.855,30.273,15.625,69.336
1643438804.210,12.207,25.879,27.832,20.996,-17.578
1643438804.213,19.531,29.785,29.297,26.367,-58.105
1643438804.217,16.602,30.273,30.762,21.973,28.320
1643438804.221,12.695,26.367,29.785,20.508,70.312
1643438804.225,20.508,26.855,33.203,20.508,48.828
1643438804.229,21.484,27.344,34.180,19.531,1.465
1643438804.233,19.043,28.320,32.715,21.973,27.832
1643438804.236,18.555,29.785,33.203,22.461,55.664
1643438804.240,20.020,29.785,32.715,18.555,71.289
1643438804.244,19.531,28.320,31.738,9.766,35.645
1643438804.248,21.973,30.273,32.227,15.137,-6.836
1643438804.252,30.762,34.180,30.762,29.297,27.344
1643438804.256,28.809,31.250,32.715,23.926,8.789
1643438804.259,20.996,28.809,36.133,15.625,37.109
1643438804.263,20.020,29.785,32.227,19.043,37.598
1643438804.267,20.508,27.344,30.273,11.719,6.836
1643438804.271,23.926,27.832,33.691,10.254,53.223
1643438804.275,23.926,30.273,32.715,12.207,33.203
1643438804.279,20.996,29.297,30.273,19.531,-36.621
1643438804.280,20.996,29.297,31.738,23.438,10.254
1643438804.284,20.020,32.715,28.809,22.949,102.051
1643438804.288,21.973,29.785,29.297,22.461,80.566
1643438804.292,18.066,26.367,32.227,24.414,20.508
1643438804.296,15.137,26.855,27.832,27.344,-41.992
1643438804.300,16.113,27.832,28.320,24.414,-20.020
1643438804.303,13.184,26.855,32.227,16.602,-1.465
1643438804.307,10.742,23.926,32.715,7.812,27.344
1643438804.311,8.789,22.949,30.273,13.672,46.387
1643438804.315,10.742,22.949,34.180,18.066,-27.832
1643438804.319,12.695,25.391,34.668,18.555,25.391
1643438804.323,13.184,28.809,31.250,23.438,87.891
1643438804.325,11.230,27.832,30.273,20.020,33.691
1643438804.329,12.695,25.391,29.785,21.484,12.695
1643438804.333,18.066,27.832,28.809,24.414,83.984
1643438804.337,19.531,30.762,25.879,20.508,40.527
1643438804.341,18.555,29.297,28.809,20.020,-17.578
1643438804.345,21.973,28.320,34.668,23.926,47.852
1643438804.348,25.391,31.738,33.691,21.484,69.824
1643438804.352,26.855,33.203,30.273,17.578,10.742
1643438804.356,24.902,33.691,31.738,18.555,47.852
1643438804.360,22.461,31.250,31.738,21.484,78.613
1643438804.364,26.367,28.320,34.180,21.484,10.742
1643438804.368,27.832,31.738,35.645,20.020,23.438
1643438804.370,24.414,31.250,33.691,22.949,43.945
1643438804.374,20.996,27.832,35.156,26.367,20.508
1643438804.378,21.973,27.832,34.668,27.832,35.156
1643438804.382,21.484,28.320,32.227,20.996,36.621
1643438804.386,19.043,28.320,30.762,17.090,22.461
1643438804.390,15.625,27.344,27.832,21.484,-12.695
1643438804.393,17.090,30.273,26.367,24.902,-22.461
1643438804.397,25.391,31.738,32.715,21.973,16.602
1643438804.401,29.297,28.809,35.156,20.508,46.387
1643438804.405,29.785,30.762,29.297,21.973,46.387
1643438804.409,32.227,29.785,29.297,18.555,88.379
1643438804.413,30.762,27.344,32.715,21.484,72.266
1643438804.415,29.297,28.809,33.691,29.297,-7.324
1643438804.419,31.250,29.297,32.227,31.738,22.461
1643438804.423,35.645,28.809,30.273,31.738,67.871
1643438804.427,31.738,28.320,33.691,29.297,44.434
1643438804.431,26.855,24.414,34.180,31.738,20.996
1643438804.435,31.738,20.996,30.762,34.180,-44.434
1643438804.438,34.180,23.438,29.785,30.762,-12.207
1643438804.442,31.250,24.414,33.203,30.273,67.383
1643438804.446,28.809,22.949,35.645,30.762,16.602
1643438804.450,30.273,24.414,35.645,26.855,36.621
1643438804.454,29.785,25.391,34.668,22.949,61.035
1643438804.458,24.414,28.320,35.645,23.926,37.109
1643438804.476,21.484,26.367,36.621,23.438,52.734
1643438804.480,22.461,22.461,35.156,21.484,-0.977
1643438804.484,22.461,25.391,32.227,21.484,-21.484
1643438804.488,25.879,26.855,31.250,27.344,12.695
1643438804.492,29.297,27.832,37.598,25.879,35.645
1643438804.496,31.250,27.344,36.133,20.508,20.020
1643438804.499,31.250,25.879,32.227,23.438,0.488
1643438804.503,28.809,28.320,34.180,25.391,48.828
1643438804.507,27.344,27.344,35.645,23.438,35.645
1643438804.511,24.414,25.879,35.645,24.902,11.719
1643438804.515,20.996,24.414,32.715,21.973,64.941
1643438804.519,26.855,24.414,29.785,18.555,84.473
1643438804.520,31.738,28.809,27.344,24.902,49.805
1643438804.524,26.855,29.297,32.715,21.973,48.828
1643438804.528,25.879,29.785,29.785,12.695,26.367
1643438804.532,27.832,28.809,21.484,14.648,-34.180
1643438804.536,23.926,29.785,24.414,18.555,1.465
1643438804.540,23.438,32.715,30.762,20.020,39.062
1643438804.543,28.320,29.785,31.250,16.602,-7.812
1643438804.547,31.250,30.273,28.320,17.090,27.832
1643438804.551,27.344,30.762,28.809,21.484,79.102
1643438804.555,30.273,28.809,33.203,23.926,3.906
1643438804.559,29.785,28.320,35.645,23.926,22.461
1643438804.563,22.461,27.832,31.738,16.602,53.223
1643438804.565,21.973,30.762,30.273,17.090,29.297
1643438804.569,20.996,31.738,31.738,23.438,-21.484
1643438804.573,22.461,31.250,32.715,23.926,8.789
1643438804.577,20.996,32.715,30.762,20.508,31.738
1643438804.581,19.531,29.785,28.320,20.508,-5.859
1643438804.585,19.531,28.809,29.297,20.996,10.742
1643438804.588,17.578,30.273,31.738,16.113,18.555
1643438804.592,19.531,27.344,32.227,16.113,36.621
1643438804.596,21.973,26.367,30.762,19.043,6.348
1643438804.600,21.973,27.832,28.809,22.949,0.977
1643438804.604,21.484,27.344,32.715,21.973,4.883
1643438804.608,20.020,25.391,36.133,19.531,20.020
1643438804.610,18.066,27.832,31.250,22.461,59.082
1643438804.614,19.043,31.250,27.832,20.508,45.898
1643438804.618,21.973,31.738,29.785,17.090,48.340
1643438804.622,25.879,31.738,32.227,20.020,50.781
1643438804.626,31.250,32.715,31.250,23.438,48.828
1643438804.630,34.668,32.227,27.344,22.461,-2.441
1643438804.633,26.855,33.203,28.320,15.625,19.531
1643438804.637,23.438,30.762,26.855,14.160,57.129
1643438804.641,22.461,27.344,30.273,23.438,40.527
1643438804.645,16.602,27.832,35.156,25.879,50.293
1643438804.649,18.066,28.320,35.156,28.809,30.762
1643438804.653,10.254,28.809,30.762,25.391,20.020
1643438804.655,2.930,29.785,29.297,21.484,25.391
1643438804.659,13.672,28.320,34.668,26.855,30.273
1643438804.663,15.137,28.320,36.133,23.926,43.457
1643438804.667,18.066,30.273,33.691,21.484,47.852
1643438804.671,22.461,33.203,31.250,23.926,65.918
1643438804.675,15.625,33.691,32.227,13.184,23.926
1643438804.678,13.184,33.691,32.227,5.371,-0.488
1643438804.682,20.996,36.133,34.180,7.812,-34.668
1643438804.686,22.949,38.086,36.133,12.207,-24.902
1643438804.690,23.926,36.133,33.203,18.066,2.930
1643438804.694,29.297,35.645,29.297,20.020,-10.254
1643438804.698,20.508,36.621,32.715,8.789,40.527
1643438804.701,8.789,38.086,36.133,-3.418,31.250
1643438804.705,-3.418,44.434,34.180,-13.184,6.836
1643438804.709,-8.789,43.945,32.715,-16.113,59.082
1643438804.713,8.301,40.039,32.715,-4.883,62.988
1643438804.717,22.949,39.551,36.621,11.719,31.738
1643438804.721,13.184,38.086,39.551,1.465,84.473
1643438804.724,5.371,38.574,34.180,-5.371,89.355
1643438804.728,12.695,39.551,33.203,6.348,55.176
1643438804.732,10.742,38.574,35.645,1.465,9.766
1643438804.736,8.789,31.250,36.133,2.441,-38.086
1643438804.740,15.137,31.250,34.180,9.766,7.324
1643438804.744,22.461,29.297,33.203,17.090,13.184
1643438804.745,21.973,26.367,32.715,16.602,25.879
1643438804.749,24.902,27.344,30.273,20.996,1.953
1643438804.753,34.668,25.391,31.250,27.344,23.438
1643438804.757,35.156,28.320,31.738,26.855,42.969
1643438804.761,31.738,29.297,31.250,26.855,6.836
1643438804.765,37.598,26.855,32.715,25.391,-12.695
1643438804.768,39.062,28.809,31.738,25.879,-6.348
1643438804.772,34.668,33.203,25.391,31.250,74.707
1643438804.776,33.203,32.227,26.855,27.832,96.680
1643438804.780,32.227,25.391,29.297,25.879,50.781
1643438804.784,34.668,26.855,26.855,28.809,14.648
1643438804.788,34.668,27.832,25.391,29.297,37.109
1643438804.790,28.809,25.879,24.414,29.297,49.316
1643438804.794,31.250,25.879,21.484,27.832,40.039
1643438804.798,34.668,23.438,20.508,31.738,29.785
1643438804.802,29.297,23.926,21.484,36.621,10.254
1643438804.806,31.738,27.344,20.020,37.109,10.254
1643438804.810,36.621,24.414,20.508,37.598,23.438
1643438804.813,33.691,24.414,19.531,33.691,56.152
1643438804.817,35.156,24.902,18.066,33.203,23.438
1643438804.821,40.039,22.461,22.461,40.527,44.434
1643438804.825,37.598,21.484,26.367,40.527,86.426
1643438804.829,36.133,21.484,24.902,38.574,85.449
1643438804.833,40.527,22.461,22.461,42.480,72.754
1643438804.850,37.598,20.996,21.484,45.410,18.066
1643438804.854,35.645,21.973,23.926,46.387,39.062
1643438804.858,34.668,23.926,25.879,43.945,32.715
1643438804.862,32.715,22.949,26.855,39.551,-11.719
1643438804.866,35.156,20.508,26.367,41.504,17.578
1643438804.870,39.062,23.438,24.414,41.016,42.969
1643438804.873,42.480,27.832,25.391,41.504,26.367
1643438804.877,39.551,25.879,27.344,45.898,45.898
1643438804.881,39.551,26.855,25.391,40.527,32.227
1643438804.885,36.621,27.832,24.902,30.762,23.438
1643438804.889,31.738,27.832,25.391,36.621,34.668
1643438804.893,32.227,27.832,26.367,34.180,36.621
1643438804.895,33.691,27.832,26.367,26.855,8.789
1643438804.899,31.738,29.785,25.879,27.344,41.992
1643438804.903,28.809,27.344,29.297,24.414,98.633
1643438804.907,32.715,24.902,28.320,22.949,35.156
1643438804.911,34.180,23.926,28.320,24.414,12.695
1643438804.915,30.273,22.949,29.297,23.438,34.668
1643438804.918,26.855,24.902,26.855,23.438,2.441
1643438804.922,25.391,22.949,28.809,26.367,19.531
1643438804.926,21.973,22.461,29.785,23.438,24.902
1643438804.930,16.113,26.367,28.809,15.625,-20.996
1643438804.934,19.531,26.855,33.203,19.531,0.488
1643438804.938,25.879,23.926,32.715,20.996,40.527
1643438804.940,24.414,21.973,34.668,19.043,58.105
1643438804.944,21.484,22.949,37.109,20.020,60.059
1643438804.948,21.973,23.926,33.691,18.555,11.719
1643438804.952,25.391,24.902,33.691,19.531,-1.465
1643438804.956,29.297,27.344,33.203,21.484,15.137
1643438804.960,27.344,29.785,29.785,19.043,14.160
1643438804.963,27.832,29.785,29.785,20.996,31.738
1643438804.967,31.250,29.297,32.715,28.320,41.504
1643438804.971,30.762,29.785,31.250,26.855,-2.441
1643438804.975,29.297,26.855,35.645,27.344,15.625
1643438804.979,30.273,28.809,36.133,33.691,28.809
1643438804.983,31.738,32.715,30.273,32.715,22.461
1643438804.985,34.180,32.227,29.297,27.344,14.160
1643438804.989,31.250,30.762,30.762,25.879,-36.621
1643438804.993,27.832,32.715,32.227,19.043,-19.531
1643438804.997,28.320,36.621,29.297,22.461,20.020
1643438805.001,25.391,37.109,28.809,21.484,8.301
1643438805.005,22.949,35.156,31.738,16.113,2.441
1643438805.008,24.902,33.691,32.227,26.855,-8.789
1643438805.012,20.508,31.250,30.273,24.414,-2.930
1643438805.016,15.625,30.762,29.297,18.555,30.273
1643438805.020,17.578,33.691,33.203,23.438,-9.277
1643438805.024,23.926,33.691,33.691,28.809,-7.324
1643438805.028,22.461,34.180,29.297,20.508,41.992
1643438805.030,18.066,34.180,24.414,15.137,19.531
1643438805.034,20.996,30.273,29.785,19.531,30.273
1643438805.038,21.973,27.344,29.297,13.184,44.434
1643438805.042,20.020,29.785,28.809,9.766,-1.465
1643438805.046,22.949,29.297,31.738,14.648,28.809
1643438805.050,24.414,27.344,29.297,19.043,65.918
1643438805.053,19.531,25.879,34.180,18.066,11.230
1643438805.057,16.602,26.855,33.203,16.602,20.020
1643438805.061,18.555,27.832,30.762,20.996,29.297
1643438805.065,22.461,24.902,34.668,22.949,45.410
1643438805.069,25.391,27.344,32.715,26.367,85.449
1643438805.073,24.902,30.762,29.297,29.785,55.664
1643438805.075,27.344,31.250,29.785,29.297,18.555
1643438805.079,30.762,31.738,30.762,30.273,64.453
1643438805.083,32.715,32.227,29.785,22.949,78.125
1643438805.087,34.180,34.668,27.344,19.531,-22.461
1643438805.091,34.180,34.180,26.855,25.879,-28.809
1643438805.095,34.668,33.203,30.273,29.785,29.297
1643438805.098,36.133,34.180,29.297,28.320,-0.488
1643438805.102,34.668,32.715,31.250,27.832,-49.805
1643438805.106,30.762,32.227,33.203,27.344,-17.578
1643438805.110,31.738,32.227,30.762,27.832,31.738
1643438805.114,33.691,29.297,30.273,29.297,17.090
1643438805.118,31.250,31.738,30.762,31.738,22.461
1643438805.120,30.762,33.691,33.203,34.668,-4.395
1643438805.124,31.250,31.250,32.715,31.738,24.902
1643438805.128,31.250,29.297,32.227,28.809,82.520
1643438805.132,28.320,25.879,30.762,23.926,54.688
1643438805.136,27.832,25.391,28.320,20.020,8.789
1643438805.140,26.367,28.809,26.855,20.020,28.320
1643438805.143,21.973,29.297,23.438,23.438,18.066
1643438805.147,23.926,29.785,25.391,23.438,-25.391
1643438805.151,25.391,33.203,27.832,21.973,6.836
1643438805.155,22.461,29.785,25.879,22.949,-0.977
1643438805.159,24.414,27.832,28.320,18.555,25.391
1643438805.163,27.344,31.738,25.879,19.043,58.105
1643438805.166,21.973,27.344,29.297,20.508,3.418
1643438805.170,21.484,26.367,29.297,14.160,26.367
1643438805.174,22.949,29.297,21.973,17.090,74.707
1643438805.178,23.438,24.902,27.344,20.996,63.965
1643438805.182,26.855,24.414,28.809,17.090,17.578
1643438805.186,27.832,25.879,25.391,18.555,0.488
1643438805.189,26.367,26.855,23.926,17.578,10.254
1643438805.193,28.809,28.809,28.320,23.438,-29.297
1643438805.197,26.367,30.762,31.738,30.762,-0.488
1643438805.201,20.020,31.738,27.832,24.902,51.758
1643438805.205,17.578,28.320,25.391,21.973,73.242
1643438805.209,17.578,25.879,29.297,20.996,89.844
1643438805.240,18.555,26.367,27.832,20.996,55.176
1643438805.244,17.090,29.785,23.926,20.996,11.230
1643438805.248,17.578,30.273,26.855,20.508,12.207
1643438805.252,16.602,27.344,29.785,21.973,69.336
1643438805.256,18.555,29.297,28.320,23.926,62.500
1643438805.260,22.949,27.344,23.926,28.320,34.180
1643438805.263,23.926,26.367,25.391,26.367,72.754
1643438805.267,19.043,29.297,30.273,17.578,54.199
1643438805.271,24.414,28.320,30.273,20.508,24.414
1643438805.275,32.715,28.320,30.273,24.902,19.531
1643438805.279,25.879,29.297,34.668,20.508,4.395
1643438805.283,25.879,27.832,38.086,23.438,48.340
1643438805.271,28.809,28.320,35.645,27.344,54.688
1643438805.275,25.391,29.785,33.691,24.414,28.809
1643438805.279,32.227,30.762,33.203,18.066,44.922
1643438805.283,36.621,32.227,31.738,15.137,69.336
1643438805.287,32.715,32.715,26.855,21.973,11.230
1643438805.291,29.785,31.738,27.344,20.508,-2.441
1643438805.294,24.414,31.738,33.203,16.113,78.125
1643438805.298,24.902,36.133,30.762,17.090,34.180
1643438805.302,29.297,36.621,29.297,16.113,35.156
1643438805.306,29.785,32.715,31.250,16.113,107.422
1643438805.310,34.180,35.645,32.715,19.043,17.090
1643438805.314,34.180,37.109,34.180,24.902,0.977
1643438805.315,31.738,33.203,29.785,26.855,47.852
1643438805.319,32.715,32.227,28.320,22.949,10.254
1643438805.323,27.832,32.227,33.691,18.066,-8.301
1643438805.327,20.508,31.250,33.203,22.461,-2.930
1643438805.331,15.625,28.809,31.738,23.438,-15.137
1643438805.335,14.648,27.832,31.250,16.602,28.809
1643438805.338,19.043,31.250,32.227,17.090,-3.418
1643438805.342,22.949,33.691,32.715,24.414,-4.395
1643438805.346,25.391,31.738,27.832,25.391,32.715
1643438805.350,23.926,29.297,29.785,20.508,26.367
1643438805.354,20.508,27.832,31.738,20.508,47.852
1643438805.358,25.879,29.785,28.809,24.902,35.645
1643438805.360,29.785,29.785,29.785,20.996,82.520
1643438805.364,26.367,28.320,28.320,13.672,72.266
1643438805.368,27.344,29.297,26.367,18.555,39.551
1643438805.372,29.785,31.250,26.855,17.578,52.734
1643438805.376,29.785,30.762,29.785,17.578,-9.277
1643438805.380,31.738,28.809,31.250,25.391,-28.809
1643438805.383,33.691,30.762,30.762,28.809,45.410
1643438805.387,34.668,32.715,32.227,31.250,16.602
1643438805.391,31.250,28.809,30.762,23.438,-52.246
1643438805.395,23.438,26.367,30.762,17.090,-60.059
1643438805.399,20.020,26.367,33.203,20.996,63.965
1643438805.403,26.855,25.879,29.785,24.414,94.238
1643438805.405,30.762,27.832,30.762,21.973,56.641
1643438805.409,30.273,29.297,32.227,19.531,58.105
1643438805.413,33.691,29.785,30.762,25.879,26.855
1643438805.417,34.180,30.273,32.227,31.250,60.547
1643438805.421,27.832,29.785,31.738,31.250,57.617
1643438805.425,25.391,28.320,31.250,31.250,-4.395
1643438805.428,23.926,25.879,32.715,33.203,-34.668
1643438805.432,24.902,25.391,30.762,29.297,-21.484
1643438805.436,27.832,26.367,32.227,23.926,0.000
1643438805.440,28.809,25.879,36.621,20.508,-9.277
1643438805.444,32.715,28.809,30.273,24.902,2.930
1643438805.448,31.738,30.762,30.762,29.785,46.387
1643438805.450,30.273,32.227,34.180,31.250,52.246
1643438805.454,30.273,33.691,29.785,31.738,66.406
1643438805.458,29.785,31.738,25.879,35.645,51.758
1643438805.462,29.297,31.738,28.809,36.621,27.344
1643438805.466,33.203,33.691,26.855,34.668,22.461
1643438805.470,32.715,31.738,24.902,30.273,17.578
1643438805.473,26.855,28.320,23.438,26.367,-20.996
1643438805.477,22.461,27.832,22.949,20.996,5.371
1643438805.481,20.020,27.832,27.344,22.461,82.520
1643438805.485,24.902,31.738,29.785,24.902,25.879
1643438805.489,28.809,31.250,28.320,23.438,19.043
1643438805.493,28.809,28.320,28.809,25.391,41.016
1643438805.495,27.344,30.762,32.715,24.414,34.180
1643438805.499,27.832,30.273,31.738,30.273,30.273
1643438805.503,31.250,28.809,29.785,35.645,14.648
1643438805.507,29.297,29.785,30.762,32.227,11.719
1643438805.511,31.738,32.227,31.738,33.203,34.180
1643438805.515,36.621,32.715,33.203,39.062,24.902
1643438805.518,37.109,30.273,28.809,37.598,17.578
1643438805.522,36.621,28.809,28.809,26.367,37.598
1643438805.526,34.180,29.785,33.203,20.508,33.203
1643438805.530,31.250,32.227,29.785,23.438,44.922
1643438805.534,30.762,34.180,31.250,30.273,61.523
1643438805.538,29.785,35.156,37.598,31.738,54.199
1643438805.540,24.414,34.668,35.156,27.832,54.199
1643438805.544,28.809,31.738,33.203,26.367,44.434
1643438805.548,34.180,29.297,33.691,27.832,70.312
1643438805.552,30.273,30.762,31.738,29.297,54.199
1643438805.556,26.855,30.762,31.738,26.367,28.809
1643438805.560,27.344,30.273,32.715,23.926,34.180
1643438805.563,27.344,28.809,34.668,24.902,47.363
1643438805.567,32.227,28.320,35.156,24.414,20.508
1643438805.571,28.809,30.762,34.180,20.508,15.625
1643438805.575,20.996,29.785,35.645,19.043,37.598
1643438805.579,23.438,29.785,34.668,20.996,53.711
1643438805.583,23.438,30.273,31.250,17.578,66.406
1643438805.600,23.438,30.273,30.762,21.484,27.344
1643438805.604,24.414,29.297,31.738,26.855,1.953
1643438805.608,24.414,27.832,31.738,26.367,13.672
1643438805.612,21.973,27.344,32.227,20.996,62.500
1643438805.616,20.996,27.344,28.809,21.484,77.637
1643438805.620,24.902,25.391,25.879,22.949,42.969
1643438805.623,24.902,27.344,32.227,18.066,63.477
1643438805.627,26.855,28.809,35.645,21.973,64.453
1643438805.631,32.227,28.320,35.645,21.973,58.105
1643438805.635,30.762,28.320,35.156,19.043,48.828
1643438805.639,26.367,29.297,35.645,21.484,17.090
1643438805.643,22.461,30.762,37.109,23.438,16.602
1643438805.645,24.414,29.785,34.180,25.879,-22.949
1643438805.649,22.949,31.738,29.297,22.949,23.438
1643438805.653,24.414,33.691,30.762,19.043,57.617
1643438805.657,27.344,34.668,30.273,21.484,55.176
1643438805.661,26.855,35.156,28.320,24.902,51.270
1643438805.665,29.297,35.156,26.855,26.367,-4.395
1643438805.668,30.762,32.227,27.344,24.902,-20.508
1643438805.672,28.320,30.273,31.738,22.461,6.836
1643438805.676,24.902,28.320,30.273,21.484,53.711
1643438805.680,22.949,30.762,25.879,20.020,46.875
1643438805.684,20.996,31.250,26.367,15.625,31.738
1643438805.688,19.531,28.809,27.344,17.090,0.977
1643438805.691,24.902,31.250,27.344,20.508,-26.367
1643438805.695,26.367,29.785,26.367,22.949,-13.672
1643438805.699,22.949,31.738,23.926,27.344,23.438
1643438805.703,25.391,31.738,24.902,23.926,33.691
1643438805.707,25.391,26.855,27.344,24.414,-28.320
1643438805.711,22.949,27.832,29.785,25.879,-34.180
1643438805.714,23.438,29.785,26.855,22.461,27.832
1643438805.718,25.879,29.785,24.902,24.902,26.855
1643438805.722,27.344,29.785,27.344,23.438,26.367
1643438805.726,27.832,31.250,25.879,14.648,76.660
1643438805.730,27.832,29.785,26.367,14.648,51.270
1643438805.734,29.785,31.738,24.414,22.461,27.344
1643438805.735,29.297,33.691,25.879,23.926,43.457
1643438805.739,22.949,28.320,32.227,19.531,18.066
1643438805.743,23.926,27.344,30.273,22.949,-4.883
1643438805.747,27.344,28.809,29.297,21.973,-19.531
1643438805.751,26.367,27.344,34.668,20.508,13.672
1643438805.755,25.879,27.344,34.668,20.996,10.742
1643438805.758,19.531,27.344,33.691,20.508,27.344
1643438805.762,21.973,27.344,29.785,18.555,31.250
1643438805.766,25.879,28.809,26.367,17.090,-13.672
1643438805.770,21.973,30.762,30.762,18.066,19.043
1643438805.774,25.391,29.785,33.203,21.484,59.082
1643438805.778,24.902,26.367,29.785,24.902,37.109
1643438805.780,22.461,22.949,33.203,26.367,-15.137
1643438805.784,22.949,23.926,34.180,24.414,-7.812
1643438805.788,20.996,24.414,27.344,21.484,22.949
1643438805.792,21.484,21.973,28.809,20.508,41.504
1643438805.796,24.414,25.879,26.855,24.902,12.207
1643438805.800,25.879,25.391,28.320,28.809,11.719
1643438805.803,26.855,26.367,32.227,21.484,103.516
1643438805.807,27.344,26.367,27.344,20.508,61.523
1643438805.811,28.320,27.344,28.809,21.973,37.109
1643438805.815,26.855,30.273,30.762,18.555,106.934
1643438805.819,28.320,27.832,23.438,18.555,59.082
1643438805.823,28.809,28.320,21.973,20.020,48.828
1643438805.825,24.902,30.273,27.344,20.508,61.035
1643438805.829,25.391,28.809,28.320,20.996,58.594
1643438805.833,26.855,29.785,23.926,20.996,50.781
1643438805.837,25.879,33.203,27.832,17.090,25.391
1643438805.841,28.320,34.668,27.832,17.578,11.719
1643438805.845,33.203,31.738,25.879,22.461,8.789
1643438805.848,26.367,26.855,29.297,18.066,40.039
1643438805.852,20.020,29.297,28.809,17.578,-31.738
1643438805.856,21.973,30.273,32.227,21.973,-20.508
1643438805.860,22.461,28.809,31.738,28.320,62.500
1643438805.864,26.855,31.250,26.855,25.879,39.062
1643438805.868,24.902,27.832,32.227,18.555,42.480
1643438805.870,21.973,26.367,31.250,17.090,60.059
1643438805.874,24.414,28.809,27.344,16.602,41.992
1643438805.878,23.438,30.762,29.297,19.043,40.039
1643438805.882,20.996,29.785,27.832,23.926,41.992
1643438805.886,18.555,26.367,26.367,22.461,8.301
1643438805.890,21.484,26.855,26.855,19.043,-27.344
1643438805.893,21.973,26.855,27.832,20.020,-5.859
1643438805.897,15.625,26.855,31.738,19.043,26.855
1643438805.901,8.301,28.809,34.668,16.113,39.062
1643438805.905,-0.488,25.879,35.156,13.184,45.410
1643438805.909,-3.906,24.902,35.645,7.324,42.480
1643438805.913,-1.465,28.809,35.156,2.441,35.156
1643438805.915,-0.977,27.344,34.180,4.395,20.508
1643438805.919,2.930,25.391,32.227,9.277,38.086
1643438805.923,8.301,24.902,32.715,9.277,67.871
1643438805.927,13.672,25.879,32.715,10.742,12.695
1643438805.931,14.648,27.344,31.738,11.719,-13.184
1643438805.935,12.207,27.832,27.832,12.207,36.133
1643438805.938,11.230,27.832,27.832,15.625,35.156
1643438805.942,10.254,30.273,35.645,14.160,8.301
1643438805.946,12.695,31.738,36.621,15.625,27.344
1643438805.950,16.113,31.738,32.227,16.113,6.348
1643438805.954,17.578,29.297,31.250,13.672,50.781
1643438805.958,17.578,28.320,32.715,14.648,49.316
1643438805.975,20.020,28.809,33.203,15.625,37.598
1643438805.979,27.344,27.832,34.180,17.090,58.105
1643438805.983,30.273,29.785,32.715,15.625,19.043
1643438805.987,28.320,29.297,30.762,20.020,8.789
1643438805.991,27.344,28.320,32.227,23.438,16.602
1643438805.995,24.902,27.832,29.785,23.926,-5.859
1643438805.998,20.508,28.809,31.738,21.973,0.000
1643438806.002,14.648,31.250,34.668,20.996,57.129
1643438806.006,13.672,31.250,32.227,26.367,86.914
1643438806.010,16.602,30.273,30.273,21.973,40.527
1643438806.014,18.066,30.762,29.785,16.602,19.043
1643438806.018,16.602,30.273,30.273,13.184,53.711
1643438806.020,17.090,30.273,28.809,14.160,49.805
1643438806.024,20.996,29.297,27.832,18.066,36.621
1643438806.028,23.438,29.785,27.344,19.043,37.598
1643438806.032,23.438,30.273,26.367,19.043,52.734
1643438806.036,23.438,31.250,23.926,19.043,96.680
1643438806.040,19.043,29.297,22.949,19.531,96.191
1643438806.043,22.461,27.832,27.832,17.090,46.387
1643438806.047,20.020,28.809,30.762,11.719,-2.441
1643438806.051,18.555,30.273,27.344,13.184,-12.207
1643438806.055,26.367,32.715,24.902,17.578,1.953
1643438806.059,24.414,33.203,28.809,14.160,42.969
1643438806.063,23.926,30.762,28.809,16.602,43.457
1643438806.065,24.902,30.762,25.879,20.508,0.488
1643438806.069,24.902,31.738,29.297,21.973,-27.832
1643438806.073,26.855,31.738,32.227,24.902,11.230
1643438806.077,29.297,31.738,30.273,28.320,58.594
1643438806.081,32.715,31.250,25.879,30.762,27.344
1643438806.085,28.809,29.297,26.367,28.809,14.648
1643438806.088,20.020,29.785,28.809,22.461,-15.137
1643438806.092,17.090,30.762,29.297,23.438,-3.418
1643438806.096,21.973,27.344,29.785,30.762,-18.066
1643438806.100,20.020,27.832,31.738,21.484,-19.531
1643438806.104,15.137,28.320,37.109,14.648,70.801
1643438806.108,18.555,24.902,36.133,19.043,39.551
1643438806.110,20.020,24.414,31.738,22.949,40.527
1643438806.114,20.020,25.879,30.762,20.508,78.125
1643438806.118,22.461,26.367,29.785,20.508,14.160
1643438806.122,24.414,28.809,33.691,18.066,-31.250
1643438806.126,26.855,31.738,31.738,17.578,-3.418
1643438806.130,24.902,31.250,28.809,19.043,35.156
1643438806.133,19.531,30.273,32.227,17.578,35.645
1643438806.137,21.973,33.691,28.320,19.531,28.809
1643438806.141,22.949,34.180,27.344,21.484,34.180
1643438806.145,25.879,31.250,30.762,27.832,58.105
1643438806.149,27.832,30.273,29.785,28.320,34.180
1643438806.153,30.762,28.809,26.367,24.902,41.504
1643438806.156,32.227,26.855,28.320,24.902,62.988
1643438806.160,28.320,29.785,31.738,20.508,54.199
1643438806.164,26.367,34.180,26.855,20.996,10.254
1643438806.168,28.320,34.180,28.320,24.902,-35.156
1643438806.172,24.414,29.785,31.738,19.043,-46.875
1643438806.176,21.973,27.832,30.273,22.949,-26.367
1643438806.179,29.297,28.809,32.227,36.133,-6.836
1643438806.183,30.762,29.785,31.738,33.691,6.348
1643438806.187,28.320,29.785,33.203,30.273,-0.977
1643438806.191,26.367,28.809,33.691,25.391,-14.160
1643438806.195,26.367,28.320,32.715,25.879,22.461
1643438806.199,29.297,29.297,32.715,30.273,40.039
1643438806.200,36.133,29.785,35.156,31.250,51.758
1643438806.204,34.668,28.320,33.203,25.391,20.508
1643438806.208,27.832,25.879,28.809,23.438,38.086
1643438806.212,29.297,27.344,31.250,29.297,79.102
1643438806.216,31.250,29.785,35.645,25.879,14.648
1643438806.220,30.762,30.762,34.668,26.855,20.508
1643438806.223,31.738,30.762,28.809,31.250,65.918
1643438806.227,33.691,30.273,28.320,30.762,43.945
1643438806.231,31.738,33.691,33.203,23.438,27.832
1643438806.235,29.297,32.715,33.691,17.090,53.223
1643438806.239,31.250,29.785,30.762,26.855,43.945
1643438806.243,32.715,31.250,28.809,29.785,51.270
1643438806.245,29.297,29.297,30.762,20.996,89.844
1643438806.249,24.902,29.297,29.297,19.043,81.543
1643438806.253,22.949,28.809,26.855,18.555,35.645
1643438806.257,22.461,27.832,33.203,24.902,8.301
1643438806.261,21.484,29.297,31.250,29.297,-4.883
1643438806.265,19.531,28.809,26.855,21.973,-18.555
1643438806.268,20.508,27.832,26.855,20.020,17.090
1643438806.272,25.391,29.297,24.414,20.996,13.184
1643438806.276,26.367,29.297,28.320,24.414,-16.602
1643438806.280,22.949,28.320,33.691,26.367,11.719
1643438806.284,24.414,25.391,31.250,25.879,-17.578
1643438806.288,25.391,26.855,33.203,23.438,7.324
1643438806.290,24.902,27.832,34.668,28.320,23.926
1643438806.294,26.855,27.832,33.203,30.762,10.254
1643438806.298,24.902,26.367,36.133,24.902,43.945
1643438806.302,22.949,24.414,35.156,30.762,63.477
1643438806.306,24.414,21.973,31.250,31.738,69.336
1643438806.310,24.414,22.461,31.250,27.832,9.277
1643438806.313,31.250,25.391,30.762,30.762,-3.906
1643438806.317,30.273,23.926,38.574,29.297,94.727
1643438806.321,27.832,22.949,37.598,26.855,77.637
1643438806.325,30.762,24.902,31.250,26.855,31.250
1643438806.329,27.344,25.391,30.762,25.391,40.039
1643438806.333,30.762,26.367,31.738,28.320,26.367
1643438806.336,31.738,27.344,33.691,28.809,18.555
1643438806.340,27.832,25.879,32.227,29.297,52.246
1643438806.344,34.668,25.879,32.715,30.762,74.707
1643438806.348,29.785,26.367,35.156,27.832,91.309
1643438806.352,23.926,25.879,28.809,26.367,75.195
1643438806.356,23.926,26.855,26.855,24.902,38.574
1643438806.359,22.461,30.762,34.668,26.367,42.480
1643438806.363,25.391,32.715,34.668,23.438,34.668
1643438806.367,26.855,30.273,30.273,23.438,-7.324
1643438806.371,26.367,29.785,30.273,25.391,10.254
1643438806.375,22.949,32.715,30.273,14.648,18.066
1643438806.379,20.508,31.738,32.227,11.719,4.883
1643438806.396,20.020,30.273,32.715,18.066,41.504
1643438806.400,20.508,31.738,26.855,19.043,53.711
1643438806.404,20.996,31.738,28.320,17.578,33.203
1643438806.408,20.508,32.715,30.273,16.113,37.598
1643438806.412,19.531,30.273,26.855,20.996,48.340
1643438806.416,16.602,28.809,24.902,21.484,-2.441
1643438806.419,19.043,30.273,28.809,21.484,-2.441
1643438806.423,19.043,29.785,30.273,22.461,42.969
1643438806.427,17.090,29.297,26.367,16.602,43.457
1643438806.431,20.996,28.320,28.320,20.508,42.969
1643438806.435,15.625,28.320,33.691,20.996,41.992
1643438806.439,12.695,29.297,31.250,18.066,13.184
1643438806.440,18.066,28.320,28.809,20.996,-15.625
1643438806.444,19.043,28.320,28.809,20.508,-10.742
1643438806.448,21.484,29.785,25.879,23.438,7.812
1643438806.452,21.484,28.320,25.391,22.461,9.277
1643438806.456,22.461,28.320,25.879,21.484,16.602
1643438806.460,24.414,29.785,27.344,20.996,34.180
1643438806.463,23.438,28.320,29.785,21.973,12.695
1643438806.467,22.461,30.762,27.832,24.902,12.695
1643438806.471,22.949,28.809,27.832,22.949,4.395
1643438806.475,20.996,24.414,33.203,21.973,-10.742
1643438806.479,16.602,24.902,33.691,25.879,12.695
1643438806.483,21.973,22.949,31.738,29.785,25.391
1643438806.485,24.414,23.926,33.691,26.855,50.781
1643438806.489,22.461,27.344,37.109,25.391,72.754
1643438806.493,26.855,28.809,35.645,27.344,80.566
1643438806.497,26.367,27.344,33.691,27.344,76.172
1643438806.501,27.832,28.320,29.785,28.809,13.672
1643438806.505,30.762,27.344,28.809,29.785,27.344
1643438806.508,29.297,23.438,32.715,34.180,85.449
1643438806.512,31.250,26.855,26.855,39.062,25.391
1643438806.516,27.344,28.320,26.367,29.297,-10.742
1643438806.520,22.461,26.855,32.715,16.602,-8.301
1643438806.524,31.738,29.785,32.227,21.484,28.320
1643438806.528,31.738,30.762,28.320,26.855,54.199
1643438806.530,24.902,31.738,28.320,23.926,-1.465
1643438806.534,28.320,31.250,31.250,20.020,25.879
1643438806.538,27.344,28.320,32.715,21.973,72.266
1643438806.542,20.508,28.809,28.320,22.461,62.500
1643438806.546,21.484,27.832,26.367,23.926,44.434
1643438806.550,24.414,26.855,31.250,29.297,51.758
1643438806.553,23.926,27.832,34.668,28.809,43.457
1643438806.557,19.531,27.344,29.297,20.996,-1.465
1643438806.561,17.090,30.762,30.762,15.625,18.555
1643438806.565,17.090,31.738,32.227,18.555,40.039
1643438806.569,17.090,27.344,29.785,14.160,36.133
1643438806.573,17.578,28.320,30.762,8.789,23.438
1643438806.575,20.996,28.809,29.297,16.113,4.883
1643438806.579,23.438,28.320,27.832,22.461,40.039
1643438806.583,20.996,29.297,25.879,18.555,47.852
1643438806.587,20.020,29.297,24.902,8.301,23.438
1643438806.591,20.996,30.273,23.926,6.836,42.969
1643438806.595,21.973,29.785,25.879,20.020,50.781
1643438806.598,16.113,29.297,28.320,23.438,45.898
1643438806.602,12.207,26.855,28.320,17.090,11.719
1643438806.606,13.184,24.414,29.297,15.625,-12.695
1643438806.610,9.766,25.879,26.855,8.789,0.977
1643438806.614,13.672,27.344,26.855,9.766,-15.137
1643438806.618,13.672,29.297,27.832,10.742,-10.742
1643438806.636,11.719,27.832,26.855,7.812,-8.301
1643438806.640,16.602,28.320,28.809,8.789,-3.418
1643438806.644,17.090,27.832,29.785,9.766,5.859
1643438806.648,19.531,24.902,30.273,11.230,39.062
1643438806.652,17.090,25.391,31.738,8.301,64.453
1643438806.656,21.973,25.879,28.809,10.742,-20.508
1643438806.659,26.367,24.902,28.809,14.160,-63.477
1643438806.663,21.484,26.367,36.621,22.949,52.734
1643438806.667,20.020,30.762,45.410,28.809,104.980
1643438806.671,17.578,27.832,39.551,21.484,35.645
1643438806.675,17.578,23.926,36.621,22.949,29.297
1643438806.679,16.113,22.461,39.551,28.809,38.574
1643438806.666,15.137,23.926,39.062,30.273,22.461
1643438806.670,18.555,30.762,37.598,23.926,2.930
1643438806.674,4.395,30.762,45.898,9.277,2.930
1643438806.678,-9.766,29.785,48.828,0.488,41.016
1643438806.682,-5.371,33.203,46.875,2.441,29.297
1643438806.686,-1.953,34.180,47.852,-2.930,3.418
1643438806.689,0.000,31.250,42.480,2.930,49.316
1643438806.693,9.277,31.250,41.992,15.137,70.801
1643438806.697,3.418,36.133,42.969,-4.395,10.254
1643438806.701,-9.277,40.039,41.016,-20.996,18.555
1643438806.705,-8.301,38.574,40.527,-15.625,40.527
1643438806.709,-6.836,35.645,46.387,-10.742,14.648
1643438806.725,0.488,37.598,47.363,-5.859,42.969
1643438806.729,1.953,37.598,47.852,-5.371,25.879
1643438806.733,2.441,34.180,45.898,-1.953,25.391
1643438806.737,11.230,29.297,41.992,13.672,28.809
1643438806.741,14.160,24.414,42.969,13.184,35.645
1643438806.745,14.648,26.367,41.992,6.348,45.898
1643438806.748,15.137,27.344,38.086,8.301,40.527
1643438806.752,24.902,28.809,37.598,16.113,39.551
1643438806.756,29.785,27.832,36.621,22.949,1.465
1643438806.760,27.344,23.438,31.250,17.090,-27.344
1643438806.764,24.902,21.484,29.297,11.719,-8.301
1643438806.768,26.855,21.973,29.785,25.879,54.199
1643438806.770,30.273,23.438,28.809,29.297,53.711
1643438806.774,31.738,22.461,27.832,25.879,39.062
1643438806.778,33.203,23.926,23.926,28.809,0.000
1643438806.782,35.645,23.438,23.926,28.809,-2.930
1643438806.786,39.062,22.461,23.438,34.180,19.043
1643438806.790,37.598,21.484,23.438,33.203,22.461
1643438806.793,37.598,20.508,26.855,32.715,48.828
1643438806.797,44.922,23.926,24.414,41.504,14.648
1643438806.801,47.852,24.902,24.902,41.016,39.551
1643438806.805,47.363,22.949,28.320,39.551,36.133
1643438806.809,45.410,24.902,30.762,35.645,20.508
1643438806.813,43.457,29.297,27.344,35.156,63.477
1643438806.815,39.551,26.367,22.949,35.156,29.297
1643438806.819,36.133,21.973,24.902,27.344,56.152
1643438806.823,38.086,22.949,24.902,26.855,31.250
1643438806.827,40.527,24.902,26.367,32.715,-8.789
1643438806.831,41.992,25.879,25.879,31.738,58.105
1643438806.835,42.969,26.855,22.461,33.691,29.297
1643438806.838,43.457,26.855,21.484,36.621,16.113
1643438806.842,41.504,25.391,24.414,34.668,23.926
1643438806.846,42.480,27.832,23.438,40.527,20.508
1643438806.850,40.039,27.832,20.996,40.527,19.531
1643438806.854,32.715,22.461,26.367,31.738,7.812
1643438806.858,32.227,21.484,22.949,36.621,10.254
1643438806.860,33.691,26.855,18.555,39.551,16.113
1643438806.864,35.156,28.809,21.973,31.250,-0.977
1643438806.868,34.668,26.855,23.926,34.180,-6.836
1643438806.872,31.738,25.879,22.461,32.227,71.289
1643438806.876,33.691,26.855,20.996,34.668,51.270
1643438806.880,31.250,28.320,20.996,34.668,6.836
1643438806.883,24.414,25.879,24.902,23.438,44.434
1643438806.887,22.949,25.391,25.879,22.461,28.809
1643438806.891,24.902,24.902,24.902,23.438,81.543
1643438806.895,26.855,23.926,26.367,25.391,102.051
1643438806.899,26.855,23.926,25.879,22.949,65.918
1643438806.903,27.344,27.344,24.414,22.949,49.805
1643438806.905,27.832,27.344,24.902,25.879,-17.090
1643438806.909,28.809,27.832,27.344,21.973,-28.809
1643438806.913,29.297,28.809,28.320,23.438,19.043
1643438806.917,27.832,26.855,26.855,28.320,27.832
1643438806.921,26.367,27.344,28.809,25.879,28.809
1643438806.925,25.879,26.855,28.809,26.367,41.016
1643438806.928,24.902,23.926,26.367,31.250,54.199
1643438806.932,23.438,27.832,25.879,23.926,53.223
1643438806.936,19.531,28.320,27.344,13.184,41.504
1643438806.940,21.484,25.879,27.832,17.090,5.859
1643438806.944,25.391,27.344,29.785,22.461,26.367
1643438806.948,25.391,27.832,30.762,20.020,80.566
1643438806.950,25.879,27.344,32.715,21.484,40.527
1643438806.954,26.367,27.344,32.227,21.973,40.527
1643438806.958,24.902,24.902,28.320,21.973,49.805
1643438806.962,26.855,25.391,30.273,25.391,61.523
1643438806.966,29.785,33.203,24.902,26.367,26.855
1643438806.970,28.320,36.133,21.484,25.879,12.695
1643438806.973,19.043,29.297,25.879,19.043,73.730
1643438806.977,13.184,23.438,28.320,11.230,68.848
1643438806.981,19.043,25.391,30.273,14.160,50.781
1643438806.985,19.531,23.926,28.809,14.160,27.832
1643438806.989,20.996,22.949,26.855,15.137,8.301
1643438806.993,27.832,28.320,25.391,19.043,5.371
1643438806.995,20.996,28.809,24.414,16.602,13.672
1643438806.999,17.578,27.344,27.344,19.531,46.875
1643438807.003,27.832,26.855,30.273,24.414,52.246
1643438807.007,28.809,24.902,27.832,24.414,36.133
1643438807.011,22.949,24.902,27.832,19.531,42.969
1643438807.015,22.949,23.926,27.832,19.531,56.152
1643438807.018,22.949,22.461,26.367,26.367,68.848
1643438807.022,19.531,23.438,26.855,26.855,40.527
1643438807.026,18.555,24.902,26.855,24.414,22.461
1643438807.030,22.461,26.367,31.250,27.344,-2.930
1643438807.034,23.438,27.344,33.203,18.066,-26.367
1643438807.038,26.367,27.344,32.227,20.996,17.090
1643438807.040,28.809,29.785,30.762,30.273,28.809
1643438807.044,26.367,30.762,29.297,29.297,-24.414
1643438807.048,26.855,28.320,31.738,23.926,-29.297
1643438807.052,25.391,24.902,34.180,21.484,25.879
1643438807.056,24.414,25.391,30.762,24.414,37.598
1643438807.060,27.344,24.902,27.832,23.438,14.160
1643438807.063,28.809,24.902,29.297,25.391,49.805
1643438807.067,27.832,26.855,27.832,22.949,75.684
1643438807.071,28.809,27.344,24.902,20.508,27.832
1643438807.075,24.414,25.879,26.855,21.484,-3.906
1643438807.079,19.043,26.367,32.227,16.113,76.172
1643438807.083,24.902,27.344,31.738,12.207,47.363
1643438807.086,25.391,28.809,28.320,14.160,-17.578
1643438807.090,20.020,29.785,27.344,16.113,41.504
1643438807.094,17.090,27.832,27.832,17.578,-4.395
1643438807.098,14.160,28.320,28.320,15.625,-33.203
1643438807.102,22.949,25.391,25.391,20.508,55.176
1643438807.106,25.391,24.414,26.367,20.020,62.500
1643438807.109,22.461,25.391,32.227,18.066,41.016
1643438807.113,27.344,25.879,33.691,20.020,6.836
1643438807.117,14.160,27.832,34.668,6.836,22.461
1643438807.121,6.348,29.785,29.785,1.953,80.566
1643438807.125,11.230,30.762,28.320,8.789,52.246
1643438807.129,11.230,29.297,30.762,11.719,23.926
1643438807.145,16.113,29.785,26.367,17.090,-7.324
1643438807.149,20.996,26.855,29.785,24.414,-24.902
1643438807.153,22.949,25.879,30.273,22.461,49.316
1643438807.157,23.926,25.391,27.344,22.949,56.152
1643438807.161,26.855,25.879,28.320,21.973,-11.230
1643438807.165,28.809,29.785,23.438,20.020,-24.414
1643438807.168,29.297,30.273,26.855,21.484,-16.602
1643438807.172,28.320,32.227,32.715,21.484,-35.645
1643438807.176,26.367,32.715,29.785,22.949,-14.160
1643438807.180,28.320,33.203,27.832,24.414,42.480
1643438807.184,23.438,31.250,29.785,20.020,50.781
1643438807.188,21.973,28.320,30.762,19.531,83.984
1643438807.190,23.438,27.832,30.762,23.926,64.941
1643438807.194,21.484,27.832,31.250,19.531,20.508
1643438807.198,22.949,27.832,30.273,18.555,63.477
1643438807.202,20.996,25.879,33.691,17.090,62.988
1643438807.206,19.531,23.438,31.250,13.672,21.973
1643438807.210,21.973,26.855,23.438,15.625,14.160
1643438807.213,25.879,28.809,24.902,19.531,23.926
1643438807.217,24.902,27.344,30.762,24.902,80.078
1643438807.221,28.320,27.832,25.879,26.367,57.129
1643438807.225,28.809,27.832,27.344,22.949,28.809
1643438807.229,20.996,26.855,29.785,22.949,38.574
1643438807.233,23.438,23.438,25.391,26.855,29.297
1643438807.250,27.832,27.344,25.391,25.391,0.977
1643438807.254,29.297,28.320,27.344,22.949,-5.371
1643438807.258,25.879,23.926,28.809,22.461,26.367
1643438807.262,24.902,24.902,27.832,21.484,22.461
1643438807.266,29.785,28.320,24.414,27.344,25.391
1643438807.270,33.203,28.320,27.344,36.621,16.113
1643438807.273,35.156,29.785,27.832,33.203,11.230
1643438807.277,33.691,34.180,24.902,28.809,23.926
1643438807.281,28.320,30.762,25.391,28.809,28.320
1643438807.285,26.855,24.414,28.320,23.926,57.617
1643438807.289,22.949,24.902,30.762,21.484,58.105
1643438807.293,18.066,26.367,27.832,23.926,14.648
1643438807.280,24.902,27.344,26.367,25.391,8.789
1643438807.284,29.785,30.273,26.855,25.391,38.086
1643438807.288,25.879,27.344,22.949,27.832,11.230
1643438807.292,26.855,24.902,21.973,30.273,39.551
1643438807.296,32.227,25.879,23.926,25.879,103.516
1643438807.300,27.832,27.832,25.879,20.020,52.246
1643438807.303,19.043,29.297,26.855,13.184,-8.301
1643438807.307,19.043,28.320,25.391,14.160,-21.973
1643438807.311,19.531,26.367,24.902,17.578,18.066
1643438807.315,22.949,26.367,25.391,16.113,68.359
1643438807.319,30.762,27.344,22.949,21.484,50.781
1643438807.323,32.715,27.344,21.973,20.996,14.648
1643438807.326,28.320,26.855,25.879,19.531,21.973
1643438807.330,32.227,26.367,24.902,30.762,74.219
1643438807.334,35.645,27.832,21.973,27.832,70.801
1643438807.338,27.344,26.855,24.902,23.438,19.043
1643438807.342,19.043,24.902,29.297,27.832,40.527
1643438807.346,9.766,26.367,32.227,24.902,12.207
1643438807.349,7.812,24.902,30.273,28.809,-1.953
1643438807.353,12.207,24.414,29.297,33.691,21.973
1643438807.357,13.672,25.879,34.668,30.273,43.945
1643438807.361,17.578,26.367,32.715,27.832,44.922
1643438807.365,21.973,25.879,32.715,31.250,85.449
1643438807.369,20.508,26.367,32.715,28.809,42.969
1643438807.400,20.020,25.391,29.785,20.508,-41.504
1643438807.404,23.926,25.391,31.738,23.926,13.672
1643438807.408,25.391,25.879,33.691,25.879,36.133
1643438807.412,27.832,29.297,29.785,24.414,16.113
1643438807.416,25.391,30.273,30.762,21.484,5.859
1643438807.420,16.602,27.344,29.297,12.207,-18.555
1643438807.423,19.043,25.879,22.461,11.719,28.320
1643438807.427,23.438,25.391,25.879,18.066,35.156
1643438807.431,22.461,26.367,28.809,14.160,-15.625
1643438807.435,20.996,28.320,23.438,19.531,0.488
1643438807.439,21.973,28.809,23.926,24.902,21.484
1643438807.443,22.949,28.320,27.832,20.020,44.922
1643438807.414,21.484,28.809,26.367,19.043,18.066
1643438807.418,22.461,28.320,22.461,18.555,23.926
1643438807.422,21.973,27.344,24.902,21.484,41.016
1643438807.426,26.367,26.367,28.320,20.996,17.090
1643438807.430,31.250,25.879,27.344,17.090,13.184
1643438807.434,24.414,28.809,25.391,10.742,13.184
1643438807.437,21.484,31.250,24.902,14.160,30.273
1643438807.441,14.648,27.832,30.273,13.184,19.531
1643438807.445,7.324,23.926,31.738,5.859,9.766
1643438807.449,19.531,25.879,26.367,17.578,60.059
1643438807.453,28.320,27.344,27.344,25.879,54.199
1643438807.457,24.414,24.902,31.250,24.414,1.953
1643438807.475,26.855,22.461,32.227,27.344,7.324
1643438807.479,24.902,22.949,30.762,24.902,-9.277
1643438807.483,22.461,24.902,32.715,25.879,5.859
1643438807.487,25.391,22.461,37.109,32.227,19.531
1643438807.491,25.391,20.996,35.156,27.832,14.648
1643438807.495,24.902,20.020,35.645,25.391,7.324
1643438807.498,23.926,20.020,37.598,23.438,14.648
1643438807.502,25.879,20.996,35.645,23.926,40.039
1643438807.506,31.738,25.391,34.668,30.762,46.387
1643438807.510,32.715,26.855,29.297,30.762,65.430
1643438807.514,35.645,26.367,28.809,29.785,40.039
1643438807.518,33.691,27.832,31.738,30.273,13.672
1643438807.520,28.320,27.344,30.762,27.832,20.508
1643438807.524,30.273,21.973,34.668,26.855,47.363
1643438807.528,27.832,22.461,36.133,28.809,52.246
1643438807.532,30.762,25.391,34.180,27.344,56.152
1643438807.536,29.785,24.414,31.250,26.855,31.738
1643438807.540,20.020,25.391,28.320,24.902,-25.391
1643438807.543,22.949,25.879,32.715,27.344,35.156
1643438807.547,24.414,24.414,36.133,32.227,52.734
1643438807.551,22.949,26.367,28.809,33.691,15.625
1643438807.555,28.809,30.273,27.832,29.785,10.742
1643438807.559,26.367,28.809,35.156,23.438,15.625
1643438807.563,20.020,25.879,34.180,17.578,32.715
1643438807.566,25.391,24.902,30.762,19.531,96.191
1643438807.570,25.879,25.879,31.738,22.461,83.496
1643438807.574,23.438,28.320,30.273,19.531,20.996
1643438807.578,25.879,27.832,28.320,18.555,44.434
1643438807.582,31.738,28.320,28.809,21.484,42.480
1643438807.586,35.156,31.250,27.832,27.832,32.227
1643438807.589,26.855,29.785,29.785,28.809,58.594
1643438807.593,23.926,28.320,29.297,27.344,102.539
1643438807.597,28.320,27.832,26.367,29.785,59.570
1643438807.601,26.855,24.902,26.855,26.855,11.719
1643438807.605,24.414,25.391,32.227,27.832,31.738
1643438807.609,23.438,28.320,31.738,31.738,41.504
1643438807.610,23.926,27.344,29.297,28.320,25.879
1643438807.614,23.926,27.344,33.203,26.855,48.340
1643438807.618,25.879,28.809,32.227,31.250,39.062
1643438807.622,27.344,28.320,30.762,31.250,53.223
1643438807.626,26.367,27.344,28.809,23.438,51.270
1643438807.630,24.902,25.879,28.320,20.508,35.645
1643438807.633,26.367,29.297,30.273,23.926,77.637
1643438807.637,29.297,29.297,28.809,28.809,55.664
1643438807.641,26.855,25.391,29.297,28.320,24.902
1643438807.645,22.461,25.391,31.250,20.508,27.832
1643438807.649,21.973,24.902,30.273,18.555,32.227
1643438807.653,20.508,23.438,29.297,17.578,29.785
1643438807.655,20.508,24.414,30.273,18.066,26.855
1643438807.659,22.461,26.855,29.785,19.043,77.637
1643438807.663,23.438,27.344,28.809,20.508,57.617
1643438807.667,22.949,27.832,31.250,20.996,18.066
1643438807.671,22.949,30.273,31.738,16.113,58.594
1643438807.675,23.926,28.320,29.297,20.508,-24.414
1643438807.678,25.391,25.879,29.297,21.484,-9.766
1643438807.682,28.320,28.320,26.367,16.113,56.152
1643438807.686,23.926,26.855,31.738,9.766,9.766
1643438807.690,20.996,28.809,31.738,14.160,13.672
1643438807.694,23.926,30.762,27.344,19.531,48.828
1643438807.698,24.414,29.297,32.227,18.555,9.277
1643438807.701,26.367,31.250,31.738,17.090,-0.977
1643438807.705,27.344,30.273,28.809,20.508,30.273
1643438807.709,21.973,26.855,28.320,23.438,45.898
1643438807.713,18.555,24.414,28.809,16.113,39.551
1643438807.717,18.555,28.320,29.785,15.625,21.973
1643438807.721,21.484,28.320,29.785,19.531,14.160
1643438807.724,26.367,26.855,28.809,21.484,-37.598
1643438807.728,27.344,30.762,29.785,23.926,3.418
1643438807.732,24.902,31.738,34.668,26.367,84.473
1643438807.736,25.391,30.273,35.156,24.902,46.387
1643438807.740,28.320,27.344,27.344,23.438,24.902
1643438807.744,23.438,26.855,24.414,22.949,57.129
1643438807.760,20.020,27.344,28.320,23.438,41.992
1643438807.764,23.926,28.809,30.762,23.926,11.230
1643438807.768,22.461,28.320,31.738,20.020,-10.742
1643438807.772,24.414,28.320,29.297,25.391,20.996
1643438807.776,27.344,28.320,28.320,26.367,79.590
1643438807.780,24.902,27.344,31.738,23.438,52.246
1643438807.783,23.926,26.855,31.250,22.461,16.113
1643438807.787,22.461,23.438,31.250,20.996,6.348
1643438807.791,22.461,22.461,33.691,25.391,21.484
1643438807.795,21.973,23.438,34.668,26.367,17.090
1643438807.799,23.926,22.949,33.691,21.973,8.789
1643438807.803,27.832,25.879,31.250,18.066,32.227
1643438807.791,25.879,26.855,35.645,19.531,43.457
1643438807.795,25.391,24.902,34.180,16.113,4.883
1643438807.799,32.715,25.879,32.715,17.578,-2.930
1643438807.803,31.250,28.809,37.598,20.508,23.438
1643438807.807,25.879,28.809,36.621,20.996,8.301
1643438807.811,27.832,27.832,31.250,20.020,42.480
1643438807.814,27.344,27.344,30.762,15.137,50.781
1643438807.818,26.855,27.832,32.715,19.531,-11.719
1643438807.822,21.484,25.391,33.691,20.996,-9.766
1643438807.826,23.438,24.414,33.203,18.066,20.508
1643438807.830,30.762,31.250,28.809,18.555,5.859
1643438807.834,33.203,30.762,32.227,24.414,3.418
1643438807.850,35.156,28.809,35.645,29.297,50.781
1643438807.854,31.738,29.297,29.297,24.414,49.316
1643438807.858,33.203,28.320,29.785,24.414,7.324
1643438807.862,32.227,29.297,37.109,24.902,-28.320
1643438807.866,23.438,27.832,34.668,24.902,44.434
1643438807.870,22.949,26.367,30.273,26.855,23.438
1643438807.873,25.879,28.809,32.227,22.461,9.277
1643438807.877,25.391,29.785,33.203,21.973,70.312
1643438807.881,24.902,28.320,33.203,15.137,11.230
1643438807.885,23.438,25.391,32.227,15.137,10.254
1643438807.889,21.973,27.344,31.738,19.531,55.176
1643438807.893,16.602,29.785,32.227,13.672,29.297
1643438807.895,18.066,31.250,28.809,16.602,31.250
1643438807.899,20.020,33.203,29.297,20.996,48.340
1643438807.903,15.137,30.273,31.738,19.043,59.570
1643438807.907,15.137,26.367,32.227,13.184,32.227
1643438807.911,15.137,25.879,28.809,9.766,31.250
1643438807.915,15.137,26.367,26.855,15.137,41.504
1643438807.918,14.160,24.902,30.762,18.555,31.738
1643438807.922,17.090,24.902,33.691,18.066,5.371
1643438807.926,17.090,26.367,32.227,19.043,0.977
1643438807.930,13.672,25.879,32.227,25.879,77.637
1643438807.934,12.695,26.367,33.691,24.902,63.965
1643438807.938,16.113,27.344,33.203,29.785,42.480
1643438807.940,23.926,26.855,33.203,29.785,47.852
1643438807.944,23.926,27.344,33.691,20.020,75.195
1643438807.948,22.949,29.297,31.738,21.484,59.570
1643438807.952,22.949,28.320,34.668,22.949,41.504
1643438807.956,21.484,25.391,37.598,21.973,55.664
1643438807.960,19.531,25.879,34.180,23.926,49.805
1643438807.963,18.066,29.297,33.691,25.391,58.105
1643438807.967,21.484,31.738,34.180,22.949,68.359
1643438807.971,22.949,28.809,30.762,20.996,51.270
1643438807.975,21.484,27.344,32.715,21.973,55.664
1643438807.979,20.508,27.832,36.621,22.949,15.137
1643438807.983,19.043,28.320,34.180,22.949,33.691
1643438807.984,20.020,28.809,34.180,21.484,57.617
1643438807.988,24.902,28.320,34.668,26.367,-28.320
1643438807.992,23.438,27.344,32.227,25.391,-8.789
1643438807.996,21.484,27.832,28.809,21.973,20.508
1643438808.000,23.438,28.320,29.297,20.508,22.949
1643438808.004,24.902,28.320,31.250,17.090,27.344
1643438808.007,29.785,31.250,30.762,18.066,21.484
1643438808.011,36.133,30.762,32.715,21.973,19.043
1643438808.015,34.180,29.297,32.227,22.949,-6.348
1643438808.019,22.949,28.809,32.227,15.625,10.254
1643438808.023,25.391,29.297,32.227,18.555,42.480
1643438808.027,28.320,30.762,31.250,18.555,24.414
1643438808.030,19.043,29.297,31.250,15.625,20.996
1643438808.034,15.625,27.832,33.691,18.066,-8.789
1643438808.038,16.602,29.785,35.156,19.531,-21.973
1643438808.042,19.043,30.273,35.156,23.438,21.973
1643438808.046,27.344,29.785,32.715,26.367,41.992
1643438808.050,30.273,28.809,28.809,26.367,-1.953
1643438808.053,24.414,26.367,30.762,19.043,21.484
1643438808.057,31.250,32.227,29.297,21.484,30.762
1643438808.061,30.273,35.156,27.832,21.973,48.828
1643438808.065,22.949,31.738,31.738,20.508,81.543
1643438808.069,32.715,30.273,33.203,26.367,11.230
1643438808.073,33.203,31.250,34.668,21.484,-40.039
1643438808.076,23.438,29.785,35.156,18.555,-2.930
1643438808.080,22.461,25.879,30.273,21.973,10.254
1643438808.084,28.809,27.832,29.297,22.461,21.484
1643438808.088,29.297,28.809,31.250,22.949,79.102
1643438808.092,27.344,26.855,31.250,24.414,72.754
1643438808.096,32.227,29.785,29.785,24.902,81.055
1643438808.099,31.250,29.297,27.344,21.973,34.180
1643438808.103,27.832,28.809,27.344,16.113,41.504
1643438808.107,28.809,31.738,30.273,19.043,83.984
1643438808.111,30.762,29.785,30.762,26.367,11.719
1643438808.115,31.250,26.855,32.715,26.367,15.625
1643438808.119,29.297,27.344,33.203,20.508,35.156
1643438808.135,33.203,30.762,29.297,18.066,38.086
1643438808.139,34.668,28.320,29.785,23.438,12.695
1643438808.143,32.227,27.832,31.738,22.461,-5.859
1643438808.147,32.227,31.250,32.227,19.531,51.270
1643438808.151,30.762,30.762,33.691,25.391,59.570
1643438808.155,24.902,25.391,32.227,22.949,30.762
1643438808.158,26.367,25.391,26.855,20.020,-8.789
1643438808.162,26.855,25.391,31.250,22.949,-14.648
1643438808.166,20.996,25.879,38.574,20.020,19.531
1643438808.170,20.508,27.344,37.109,22.949,21.973
1643438808.174,27.344,28.809,34.668,28.320,-1.465
1643438808.178,29.785,28.320,32.227,30.273,9.766
1643438808.180,31.738,27.344,32.715,35.156,4.883
1643438808.184,32.715,27.832,30.273,28.809,20.020
1643438808.188,30.762,28.809,29.297,24.902,57.617
1643438808.192,32.227,30.762,30.762,33.203,41.016
1643438808.196,31.738,29.297,30.273,32.715,60.059
1643438808.200,29.785,29.297,28.320,23.438,40.527
1643438808.203,24.414,30.762,31.738,20.020,38.574
1643438808.207,22.949,29.785,33.203,21.484,29.297
1643438808.211,29.297,31.250,29.785,26.855,-20.020
1643438808.215,29.785,32.715,31.738,28.320,41.992
1643438808.219,28.320,32.715,26.855,20.996,56.152
1643438808.223,29.297,27.344,32.227,22.949,58.594
1643438808.225,28.320,21.973,37.598,29.297,47.363
1643438808.229,28.320,27.344,31.738,25.879,15.137
1643438808.233,26.367,27.344,34.668,18.066,57.129
1643438808.237,26.367,28.320,35.156,14.648,70.312
1643438808.241,27.832,29.785,31.738,14.648,56.641
1643438808.245,23.926,29.297,31.738,12.695,47.363
1643438808.248,24.414,31.738,35.156,19.531,29.785
1643438808.252,22.461,32.715,33.691,24.414,18.066
1643438808.256,20.996,30.273,32.715,21.973,13.184
1643438808.260,22.949,28.320,35.156,23.438,36.133
1643438808.264,20.996,30.273,34.668,24.902,67.871
1643438808.268,20.020,27.344,32.715,22.949,17.578
1643438808.270,21.973,27.344,29.785,18.555,-9.277
