timestamps,TP9,AF7,AF8,TP10,Right AUX
1642357488.575,18.555,35.156,38.086,21.973,57.129
1642357488.579,27.832,35.156,36.133,32.715,81.055
1642357488.583,27.344,26.855,38.086,32.227,40.039
1642357488.587,20.508,26.855,34.180,31.738,31.738
1642357488.591,25.391,29.297,27.344,30.273,20.020
1642357488.595,24.902,28.320,32.715,25.879,17.578
1642357488.599,21.484,33.203,38.086,13.184,16.113
1642357488.602,31.250,35.156,37.598,21.973,-8.789
1642357488.606,32.227,35.156,33.203,32.715,-22.461
1642357488.610,30.273,35.156,37.598,24.902,58.594
1642357488.614,26.855,36.133,41.016,16.113,77.148
1642357488.618,22.949,37.109,35.156,6.348,-7.324
1642357488.620,25.391,36.133,34.180,14.648,10.254
1642357488.624,26.367,33.203,33.691,26.367,73.242
1642357488.628,23.438,32.227,32.715,20.020,47.363
1642357488.632,19.043,31.738,34.180,21.484,-6.348
1642357488.636,17.090,32.227,37.109,25.391,-13.672
1642357488.640,12.695,34.668,36.133,27.832,11.719
1642357488.644,16.602,33.691,41.504,20.996,29.297
1642357488.647,21.484,28.809,43.457,12.695,12.695
1642357488.651,16.113,29.785,41.504,1.953,-22.949
1642357488.655,13.672,37.598,44.434,9.277,-3.906
1642357488.659,12.207,34.668,46.387,23.438,66.895
1642357488.663,16.602,32.227,39.062,22.949,33.691
1642357488.665,20.996,34.180,36.621,26.367,-42.969
1642357488.669,20.020,32.227,37.598,22.949,-32.227
1642357488.673,21.484,32.715,33.691,22.461,34.180
1642357488.677,16.602,32.715,35.645,12.695,30.273
1642357488.681,13.184,33.203,39.551,4.883,4.395
1642357488.685,13.672,35.645,38.086,16.113,-8.301
1642357488.689,15.137,41.016,35.645,25.879,36.621
1642357488.692,15.625,41.992,34.668,14.648,60.059
1642357488.696,22.949,39.062,37.598,5.859,-3.418
1642357488.700,21.973,39.062,41.016,3.418,40.039
1642357488.704,16.113,39.062,35.156,21.973,84.473
1642357488.708,13.672,35.645,36.133,28.320,49.316
1642357488.710,17.090,37.598,41.504,6.348,18.555
1642357488.714,24.414,41.504,37.598,10.254,1.465
1642357488.718,23.438,43.945,37.109,20.020,22.949
1642357488.722,22.949,41.992,39.551,25.391,65.430
1642357488.726,27.344,43.457,39.062,29.785,20.508
1642357488.730,26.855,42.480,37.109,14.160,-8.301
1642357488.734,20.020,35.156,35.156,8.789,23.926
1642357488.737,15.137,35.645,34.668,13.184,27.344
1642357488.741,17.090,36.133,40.039,12.695,34.180
1642357488.745,19.531,36.621,36.621,10.254,16.113
1642357488.749,11.230,37.598,31.738,11.230,-19.531
1642357488.753,14.160,37.598,35.645,27.344,35.156
1642357488.756,18.066,39.062,36.133,19.531,78.613
1642357488.760,18.066,38.086,31.738,8.301,15.625
1642357488.764,24.902,34.180,34.668,19.043,-12.207
1642357488.768,20.996,36.133,40.527,31.738,28.320
1642357488.772,12.207,40.039,35.156,17.578,41.504
1642357488.776,21.973,37.598,30.762,2.930,11.230
1642357488.780,22.461,34.180,36.133,8.301,-17.090
1642357488.783,14.160,36.133,45.898,22.949,10.742
1642357488.787,20.996,37.109,46.875,27.832,78.613
1642357488.791,26.855,37.109,41.016,25.391,32.715
1642357488.795,26.367,37.598,39.551,16.113,-22.461
1642357488.799,21.973,39.551,41.016,11.230,12.695
1642357488.815,19.531,34.668,44.434,22.949,75.684
1642357488.819,22.461,30.273,39.551,20.996,59.082
1642357488.823,25.879,32.715,40.527,15.137,9.277
1642357488.827,28.320,36.133,39.062,21.973,-7.324
1642357488.831,25.391,37.109,34.668,35.645,20.508
1642357488.835,25.391,33.691,32.227,26.855,41.504
1642357488.839,24.414,33.203,31.250,15.137,-43.945
1642357488.842,18.066,35.156,42.480,21.484,-49.316
1642357488.846,15.625,33.691,41.504,20.508,32.715
1642357488.850,14.648,34.180,36.621,23.438,68.359
1642357488.854,18.066,33.691,40.527,24.414,32.227
1642357488.858,26.367,29.297,39.551,17.090,17.090
1642357488.860,24.902,25.879,33.691,29.297,33.203
1642357488.864,14.160,27.344,34.180,41.504,69.824
1642357488.868,14.648,31.738,34.668,21.973,53.223
1642357488.872,18.066,29.785,37.109,16.113,-13.184
1642357488.876,14.648,31.738,39.062,20.020,4.395
1642357488.880,18.555,37.598,35.645,22.949,65.918
1642357488.884,20.508,36.133,33.691,21.973,41.016
1642357488.887,16.113,33.203,35.156,10.742,-12.695
1642357488.891,15.625,35.645,32.227,11.230,-46.387
1642357488.895,20.508,38.574,24.902,23.926,-31.738
1642357488.899,18.555,37.598,31.250,25.879,32.715
1642357488.903,17.578,35.156,35.645,16.113,24.414
1642357488.905,14.648,35.156,31.738,14.648,-19.531
1642357488.909,12.207,37.109,31.738,19.531,7.812
1642357488.913,18.555,39.062,33.691,20.508,79.102
1642357488.917,18.066,38.086,31.738,5.859,38.086
1642357488.921,19.043,36.133,30.273,0.488,-6.348
1642357488.925,22.461,36.621,29.297,10.742,24.414
1642357488.929,19.043,39.551,31.250,24.414,73.242
1642357488.932,15.137,36.621,34.668,30.273,62.500
1642357488.936,18.066,29.785,27.832,24.414,-24.902
1642357488.940,15.625,30.762,29.785,16.602,-25.391
1642357488.944,12.207,35.645,36.621,16.113,61.523
1642357488.948,12.695,36.621,36.621,14.648,80.566
1642357488.950,14.160,35.156,38.086,6.348,22.461
1642357488.954,7.324,34.668,38.574,3.418,2.441
1642357488.958,1.953,35.156,39.551,15.625,52.734
1642357488.962,7.324,37.109,37.109,22.461,80.566
1642357488.966,18.066,39.062,31.250,20.020,31.250
1642357488.970,17.578,38.086,30.762,12.695,-10.742
1642357488.974,20.508,35.156,29.785,22.461,-17.090
1642357488.977,21.973,35.645,30.762,37.598,-2.441
1642357488.981,22.949,38.086,33.691,25.879,-3.418
1642357488.985,32.227,38.086,39.551,9.766,-17.578
1642357488.989,28.320,37.598,42.969,11.719,10.254
1642357488.993,23.926,35.645,37.109,25.879,82.520
1642357488.996,35.156,35.156,30.273,27.832,71.777
1642357489.000,38.086,34.180,33.203,20.996,24.414
1642357489.004,28.320,36.621,35.645,27.832,5.371
1642357489.008,26.367,38.086,29.785,38.086,61.035
1642357489.012,23.438,35.645,26.367,25.879,98.145
1642357489.016,23.926,34.180,31.738,10.742,37.109
1642357489.020,18.066,33.203,33.691,12.695,-3.418
1642357489.023,15.625,33.203,28.320,20.020,9.766
1642357489.027,20.020,35.645,33.691,23.926,60.059
1642357489.031,21.973,34.180,41.504,18.066,22.949
1642357489.035,26.855,34.180,38.086,15.625,-34.668
1642357489.039,23.926,32.227,35.645,23.438,-1.953
1642357489.041,21.973,30.273,37.109,28.320,37.109
1642357489.045,20.020,31.250,37.109,19.531,37.109
1642357489.049,16.602,28.809,35.156,6.836,25.391
1642357489.053,18.066,30.762,32.715,13.672,-5.371
1642357489.057,18.555,30.762,36.133,22.461,24.902
1642357489.061,21.484,32.715,35.645,16.113,56.641
1642357489.065,29.785,34.180,34.668,17.090,8.301
1642357489.068,27.344,32.715,32.227,17.578,-34.180
1642357489.072,23.926,37.109,33.691,18.555,7.812
1642357489.076,23.438,40.527,41.504,16.602,64.941
1642357489.080,29.785,32.715,34.668,6.836,40.039
1642357489.084,27.832,31.250,29.297,7.812,3.906
1642357489.085,18.555,35.156,34.180,16.602,21.484
1642357489.089,23.926,34.180,35.156,21.973,52.734
1642357489.093,31.250,35.156,26.855,29.297,26.855
1642357489.097,25.391,36.621,26.367,20.508,-24.414
1642357489.101,19.531,35.156,33.203,11.719,-3.418
1642357489.105,18.066,32.227,32.715,26.855,27.832
1642357489.109,19.531,35.645,30.762,23.438,10.254
1642357489.112,22.949,38.574,30.273,9.766,-19.531
1642357489.116,19.531,32.715,39.062,20.508,-5.371
1642357489.120,15.625,31.250,42.969,31.738,61.523
1642357489.124,18.555,39.062,36.133,10.742,71.777
1642357489.128,22.949,37.109,39.062,0.488,1.465
1642357489.130,18.555,34.180,43.457,12.695,-41.016
1642357489.134,18.555,36.133,41.504,25.879,40.527
1642357489.138,22.949,38.086,40.039,28.809,79.102
1642357489.142,28.320,39.551,40.527,29.785,13.184
1642357489.146,27.344,36.133,41.504,21.973,-12.695
1642357489.150,18.066,34.180,37.598,13.184,22.461
1642357489.154,21.484,35.156,37.109,14.648,66.406
1642357489.157,21.973,32.715,46.875,14.160,32.227
1642357489.161,21.484,33.203,48.828,20.996,8.789
1642357489.165,22.949,36.133,43.457,31.738,24.414
1642357489.169,20.020,39.551,41.992,29.297,60.547
1642357489.173,23.438,41.016,44.922,20.020,42.480
1642357489.190,25.391,36.133,43.457,18.066,-38.574
1642357489.194,18.555,33.203,39.551,20.020,-6.836
1642357489.198,19.043,34.668,38.574,30.273,38.086
1642357489.202,23.926,32.715,41.016,21.973,19.043
1642357489.206,27.832,35.645,42.480,9.766,15.137
1642357489.210,27.832,39.551,35.645,15.625,-23.438
1642357489.214,20.508,37.109,38.086,37.598,4.883
1642357489.217,21.973,36.133,45.410,36.621,53.223
1642357489.221,26.855,36.133,40.039,1.953,20.508
1642357489.225,22.949,30.273,39.062,3.906,-11.230
1642357489.229,17.578,31.250,41.504,23.926,22.949
1642357489.233,10.742,34.668,40.039,22.461,103.027
1642357489.235,16.113,32.227,36.133,20.996,53.711
1642357489.239,18.066,34.180,35.645,11.719,-24.902
1642357489.243,12.695,34.668,42.480,18.066,-5.859
1642357489.247,11.719,34.668,45.898,44.434,61.035
1642357489.251,10.742,35.645,40.039,32.227,60.547
1642357489.255,14.648,36.621,35.156,13.184,-30.273
1642357489.259,5.859,35.645,39.062,9.277,12.695
1642357489.262,1.953,31.250,39.062,15.137,51.270
1642357489.266,13.672,30.762,37.598,18.555,72.266
1642357489.270,19.531,30.273,34.180,9.277,29.297
1642357489.274,16.602,31.738,38.574,12.695,-28.809
1642357489.278,13.672,32.715,41.016,20.996,31.738
1642357489.280,14.160,30.762,38.574,16.602,72.754
1642357489.284,16.113,35.156,38.574,10.742,18.555
1642357489.288,15.137,37.109,41.504,7.324,-6.348
1642357489.292,10.742,33.691,39.551,18.555,8.789
1642357489.296,11.719,36.621,35.645,20.996,54.199
1642357489.300,17.090,34.668,40.039,4.395,34.180
1642357489.304,19.043,31.738,44.922,1.953,-9.277
1642357489.307,11.719,32.715,43.945,19.531,36.133
1642357489.311,7.324,33.203,34.180,18.555,64.453
1642357489.315,7.324,38.086,32.227,-3.906,39.551
1642357489.319,12.695,38.086,40.039,-9.277,-6.836
1642357489.323,18.555,36.621,38.086,3.906,-2.930
1642357489.326,16.113,41.016,38.086,16.113,64.453
1642357489.330,12.207,34.180,40.527,17.578,84.961
1642357489.334,19.043,28.320,39.062,15.625,7.812
1642357489.338,20.508,32.715,41.016,10.742,-34.668
1642357489.342,17.090,33.203,43.945,21.484,40.527
1642357489.346,19.043,36.133,41.504,31.738,81.543
1642357489.350,27.832,37.109,40.039,15.137,33.203
1642357489.353,28.320,36.133,41.016,8.789,-24.902
1642357489.357,19.531,37.598,35.156,8.301,-43.945
1642357489.361,21.973,38.574,41.504,17.090,20.020
1642357489.365,21.973,41.016,45.410,18.066,77.148
1642357489.369,17.578,39.062,34.180,9.277,15.137
1642357489.370,17.578,34.668,32.227,18.555,-19.531
1642357489.374,14.648,35.645,34.180,27.832,42.969
1642357489.378,18.066,35.645,34.668,19.043,46.387
1642357489.382,24.902,35.156,33.203,15.137,11.719
1642357489.386,16.113,35.645,29.785,14.160,-5.859
1642357489.390,16.602,35.156,24.902,15.137,7.324
1642357489.394,19.531,32.715,27.344,22.461,47.363
1642357489.397,22.949,32.715,28.320,19.531,-4.395
1642357489.401,23.926,36.133,31.738,13.672,-42.969
1642357489.405,17.578,34.180,36.133,13.672,42.969
1642357489.409,21.484,32.715,33.691,21.973,86.914
1642357489.413,24.902,35.156,34.180,26.367,43.457
1642357489.415,20.508,33.203,35.156,24.902,7.324
1642357489.419,18.555,33.691,37.598,24.902,48.340
1642357489.423,29.297,35.645,33.691,30.762,70.801
1642357489.427,26.855,33.691,31.738,28.809,16.113
1642357489.431,17.578,32.715,31.738,14.648,-39.062
1642357489.435,20.996,37.109,31.250,24.902,-36.621
1642357489.439,24.414,33.691,36.133,36.621,54.688
1642357489.442,27.344,31.250,39.062,34.668,62.012
1642357489.446,27.344,37.109,42.969,28.320,0.977
1642357489.450,20.996,35.156,41.504,18.066,3.906
1642357489.454,21.484,30.273,39.062,26.367,45.898
1642357489.458,29.297,31.250,37.109,33.691,82.520
1642357489.461,38.086,33.691,37.598,27.832,46.875
1642357489.465,39.551,33.203,39.551,33.691,-16.113
1642357489.469,29.785,31.250,36.133,41.992,7.812
1642357489.473,23.438,30.762,37.598,38.086,70.801
1642357489.477,28.320,34.180,40.039,19.043,52.246
1642357489.481,27.832,35.645,37.109,17.090,1.953
1642357489.485,24.902,34.180,34.668,21.973,15.625
1642357489.488,28.320,35.156,37.109,27.344,54.688
1642357489.492,28.320,36.133,44.434,31.738,66.406
1642357489.496,33.203,34.668,39.551,23.438,17.090
1642357489.500,31.738,36.133,35.156,26.855,-25.879
1642357489.504,28.320,37.109,40.039,32.227,25.879
1642357489.505,29.785,35.156,40.527,30.762,89.844
1642357489.509,27.832,36.621,37.109,20.020,28.809
1642357489.513,19.043,39.062,36.621,15.137,-9.277
1642357489.517,13.672,39.062,34.668,25.879,36.133
1642357489.521,13.672,31.250,35.156,27.344,90.332
1642357489.525,16.602,28.809,32.227,17.090,47.363
1642357489.529,21.973,38.086,24.902,4.883,-22.461
1642357489.532,18.555,41.016,31.250,11.230,7.812
1642357489.536,17.090,41.504,39.062,23.926,93.262
1642357489.540,23.438,41.992,35.645,17.090,52.734
1642357489.544,26.367,39.551,37.109,5.371,-13.184
1642357489.548,20.996,42.969,38.574,8.789,-16.113
1642357489.565,16.602,46.875,38.574,22.461,21.973
1642357489.569,20.508,38.574,41.016,23.926,37.109
1642357489.573,26.855,37.598,40.527,16.113,-1.953
1642357489.577,20.508,40.039,42.969,12.207,18.066
1642357489.581,16.602,39.551,42.969,20.020,57.617
1642357489.585,26.855,38.574,35.156,26.855,69.336
1642357489.589,26.855,37.598,37.598,22.461,28.809
1642357489.592,23.926,38.574,40.039,23.438,-30.273
1642357489.596,31.738,39.062,42.480,34.668,27.344
1642357489.600,32.715,41.992,37.598,35.645,48.828
1642357489.604,27.832,37.109,38.574,22.949,-4.395
1642357489.608,31.250,34.180,49.805,21.973,1.953
1642357489.610,28.809,38.086,44.922,21.484,19.043
1642357489.614,26.855,38.086,43.945,32.227,85.449
1642357489.618,27.344,35.156,43.457,34.180,59.570
1642357489.622,29.785,36.621,39.551,14.160,-8.301
1642357489.626,27.344,39.062,37.598,15.625,-8.789
1642357489.630,26.367,43.945,35.645,33.691,30.273
1642357489.634,25.879,41.016,34.180,29.297,56.152
1642357489.637,17.090,34.668,35.156,15.625,-1.465
1642357489.641,17.578,36.133,33.691,15.137,-14.648
1642357489.645,23.926,35.156,26.367,20.508,10.742
1642357489.649,20.508,35.156,33.203,19.531,28.320
1642357489.653,17.578,36.621,37.109,12.695,0.977
1642357489.656,17.090,38.086,33.691,13.672,-32.227
1642357489.660,18.555,39.551,36.621,29.297,20.508
1642357489.664,20.020,39.551,37.109,21.973,73.730
1642357489.668,17.578,38.574,34.180,5.371,43.457
1642357489.672,14.648,37.109,32.715,7.812,5.859
1642357489.676,17.090,38.574,31.738,16.602,8.301
1642357489.680,22.461,40.039,35.156,24.902,47.852
1642357489.683,21.973,41.016,36.621,11.230,37.598
1642357489.687,21.973,40.527,35.645,5.859,-45.410
1642357489.691,20.508,39.062,42.480,14.648,-37.598
1642357489.695,24.902,40.039,46.875,29.785,26.855
1642357489.699,28.320,39.062,43.945,40.039,67.871
1642357489.700,25.879,38.574,41.016,21.973,26.855
1642357489.704,20.508,38.086,40.039,4.883,-10.254
1642357489.708,15.137,36.133,40.527,14.648,25.879
1642357489.712,20.020,37.109,39.551,24.902,43.945
1642357489.716,23.438,37.109,42.969,20.508,35.645
1642357489.720,23.926,34.668,45.898,19.043,-3.906
1642357489.724,23.438,33.203,41.992,26.855,-15.137
1642357489.727,22.949,36.133,41.016,35.156,34.668
1642357489.731,25.879,34.180,40.527,29.297,30.273
1642357489.735,26.367,33.691,42.969,9.277,15.625
1642357489.739,29.297,35.645,40.039,12.207,21.973
1642357489.743,28.809,32.715,36.621,22.461,39.062
1642357489.745,22.461,32.227,39.551,19.531,65.918
1642357489.749,20.020,39.062,38.574,11.230,20.508
1642357489.753,21.484,39.551,36.133,11.719,-13.184
1642357489.757,18.555,35.645,33.691,24.414,53.711
1642357489.761,5.859,39.062,32.227,25.391,46.875
1642357489.765,8.789,38.086,36.133,11.230,6.348
1642357489.769,14.648,33.691,40.527,2.441,32.715
1642357489.772,14.648,40.527,32.715,20.508,30.762
1642357489.776,13.672,42.480,35.156,27.832,22.461
1642357489.780,20.020,36.133,42.969,13.672,20.020
1642357489.784,22.461,35.645,39.062,13.184,-8.301
1642357489.788,13.184,36.133,38.574,21.484,26.855
1642357489.790,17.578,37.598,41.504,25.879,104.004
1642357489.794,26.367,39.062,40.527,16.113,80.566
1642357489.798,19.043,35.645,36.621,15.625,6.836
1642357489.802,13.672,35.645,34.668,27.344,4.395
1642357489.806,15.625,39.551,37.598,23.926,74.219
1642357489.810,17.090,40.039,35.156,18.555,31.250
1642357489.814,25.391,36.621,34.180,17.578,-11.719
1642357489.817,25.391,34.180,34.668,18.066,-11.719
1642357489.821,21.484,33.691,42.480,33.203,-8.301
1642357489.825,17.090,33.203,50.293,33.203,31.738
1642357489.829,22.949,32.715,41.016,17.578,-23.438
1642357489.833,20.996,31.738,40.039,14.160,-48.340
1642357489.835,9.766,29.785,43.945,25.879,26.855
1642357489.839,13.672,34.668,41.016,32.715,85.449
1642357489.843,19.531,37.598,39.062,23.926,29.785
1642357489.847,19.043,33.203,41.992,15.137,-40.039
1642357489.851,18.555,34.180,42.480,9.766,9.277
1642357489.855,17.578,39.062,37.598,9.766,104.492
1642357489.859,22.949,38.574,32.227,11.230,54.688
1642357489.862,31.738,37.598,37.109,24.414,-3.418
1642357489.866,26.367,38.574,41.504,29.785,-11.230
1642357489.870,22.461,35.156,35.645,22.461,23.438
1642357489.874,20.020,35.156,36.133,17.578,64.941
1642357489.878,23.438,37.109,37.109,10.742,8.789
1642357489.880,22.949,36.621,35.645,18.066,-18.066
1642357489.884,21.973,35.156,36.621,36.133,41.016
1642357489.888,22.949,32.715,36.133,38.574,46.875
1642357489.892,24.414,31.738,37.109,15.137,2.930
1642357489.896,22.461,27.832,37.109,2.441,-3.418
1642357489.900,19.043,28.809,31.738,10.254,19.531
1642357489.904,18.066,35.156,29.785,25.879,39.551
1642357489.907,16.602,34.668,37.109,28.809,5.859
1642357489.911,26.367,33.691,44.434,19.043,-7.812
1642357489.915,25.391,36.621,36.621,24.414,17.578
1642357489.919,25.391,35.645,32.227,40.527,83.984
1642357489.923,32.227,32.715,33.691,32.715,85.449
1642357489.926,33.203,35.645,36.133,22.949,-4.395
1642357489.930,25.391,38.086,37.598,32.227,-30.762
1642357489.934,21.484,38.086,38.574,38.086,39.062
1642357489.938,25.391,41.504,39.062,30.762,74.219
1642357489.942,27.832,38.574,38.574,17.090,15.625
1642357489.946,26.855,36.133,32.715,16.602,-20.996
1642357489.950,20.996,36.621,31.250,18.066,14.648
1642357489.953,8.789,35.645,39.551,17.578,94.727
1642357489.957,15.137,35.156,39.062,20.020,42.480
1642357489.961,26.367,37.598,34.668,15.625,-39.062
1642357489.965,18.555,36.621,40.527,14.648,12.207
1642357489.969,17.090,36.621,46.387,19.531,86.426
1642357489.985,22.949,36.133,39.551,14.160,33.691
1642357489.989,23.438,36.621,38.086,5.859,-9.277
1642357489.993,20.020,39.062,38.574,10.254,16.602
1642357489.997,20.020,38.574,43.945,18.066,78.125
1642357490.001,22.461,34.180,45.410,22.949,96.191
1642357490.005,24.414,28.809,36.621,20.508,21.484
1642357490.009,22.461,35.156,38.086,5.371,14.160
1642357490.012,20.996,37.109,39.062,17.090,75.684
1642357490.016,25.391,33.203,39.062,31.250,76.172
1642357490.020,29.785,35.156,41.016,14.160,7.812
1642357490.024,27.344,38.086,41.992,11.230,-15.137
1642357490.028,21.484,34.668,38.574,26.855,26.367
1642357490.030,19.531,29.297,34.180,29.297,30.762
1642357490.034,23.926,33.203,33.203,23.438,27.344
1642357490.038,25.391,34.668,35.156,29.785,9.277
1642357490.042,12.695,32.227,33.691,26.855,-13.184
1642357490.046,12.207,36.133,30.273,25.391,49.805
1642357490.050,23.438,37.598,28.809,24.902,43.457
1642357490.054,26.367,33.691,33.691,15.137,16.602
1642357490.057,23.438,34.668,38.574,20.508,44.922
1642357490.061,20.508,41.992,37.598,23.926,75.195
1642357490.065,23.926,43.945,37.598,12.695,59.082
1642357490.069,28.320,36.621,43.457,8.789,-2.441
1642357490.073,26.855,33.203,42.969,20.020,1.953
1642357490.075,24.902,35.645,42.969,30.762,52.246
1642357490.079,24.414,34.180,48.340,23.926,68.848
1642357490.083,35.645,34.668,45.410,19.043,10.742
1642357490.087,35.156,38.574,41.992,23.926,-19.043
1642357490.091,23.438,39.551,42.480,28.320,47.363
1642357490.095,33.691,41.504,39.551,36.133,64.941
1642357490.099,36.621,36.621,37.598,37.109,10.742
1642357490.102,23.438,32.227,37.598,29.297,-14.160
1642357490.106,25.391,35.645,27.344,25.879,-5.859
1642357490.110,27.344,36.133,31.250,24.414,66.406
1642357490.114,20.996,34.180,39.551,23.926,59.570
1642357490.118,21.973,33.203,34.668,17.090,-11.230
1642357490.135,18.066,34.668,36.133,20.508,25.391
1642357490.139,17.578,34.180,41.504,26.855,89.355
1642357490.143,21.484,35.156,41.992,20.508,65.918
1642357490.147,24.902,35.645,38.086,14.648,7.812
1642357490.151,21.973,35.645,32.227,18.555,-6.836
1642357490.155,23.438,35.156,31.738,33.203,28.809
1642357490.159,24.902,32.715,35.156,34.668,54.199
1642357490.162,26.855,35.156,29.297,19.531,4.883
1642357490.166,27.832,36.621,29.785,16.113,-40.527
1642357490.170,22.461,36.133,35.156,18.555,-4.883
1642357490.174,23.438,36.133,29.785,13.184,31.738
1642357490.178,31.250,36.621,31.250,11.719,-1.953
1642357490.165,33.691,39.062,37.598,17.090,-21.484
1642357490.169,24.902,38.086,36.621,21.484,12.695
1642357490.173,24.902,34.668,34.180,29.785,55.176
1642357490.177,25.391,31.738,36.133,24.414,9.766
1642357490.181,21.973,32.227,40.039,20.508,-5.371
1642357490.185,20.020,34.180,35.156,26.855,2.930
1642357490.189,23.438,33.203,30.762,31.250,20.508
1642357490.192,27.344,34.668,30.762,24.902,30.762
1642357490.196,26.855,37.109,36.133,12.207,-2.441
1642357490.200,16.113,37.598,40.039,8.301,11.719
1642357490.204,8.789,35.645,37.109,21.973,28.320
1642357490.208,7.812,34.668,35.156,23.926,23.926
1642357490.210,12.695,32.227,42.480,8.301,12.207
1642357490.214,24.902,32.715,37.598,17.578,1.465
1642357490.218,25.391,34.668,29.297,30.273,8.789
1642357490.222,21.973,35.645,38.086,34.180,56.152
1642357490.226,19.043,35.156,47.363,28.809,45.898
1642357490.230,27.344,32.227,46.387,29.785,4.395
1642357490.234,30.273,37.109,36.133,29.297,-16.113
1642357490.237,21.484,38.574,34.668,25.391,9.766
1642357490.241,20.508,35.645,42.480,27.344,47.363
1642357490.245,22.949,36.621,37.598,18.555,20.996
1642357490.249,15.625,33.203,35.645,17.578,-6.348
1642357490.253,12.207,33.691,39.062,22.461,46.387
1642357490.255,14.160,36.133,36.133,23.926,66.406
1642357490.259,16.602,33.203,34.180,12.207,4.883
1642357490.263,20.508,31.738,35.645,7.324,17.090
1642357490.267,18.555,33.691,36.621,22.949,55.664
1642357490.271,23.438,34.668,37.598,27.344,65.918
1642357490.275,29.785,34.180,37.109,17.578,80.566
1642357490.279,23.926,32.715,30.762,14.648,33.203
1642357490.282,16.113,30.762,36.133,22.461,-18.555
1642357490.286,13.184,30.762,41.992,21.484,67.383
1642357490.290,17.578,31.738,37.109,12.207,68.359
1642357490.294,19.531,33.691,35.645,12.695,-30.762
1642357490.298,19.043,37.109,32.227,25.391,-7.324
1642357490.315,20.996,38.574,32.227,33.203,58.594
1642357490.319,26.855,34.180,34.180,29.785,72.266
1642357490.323,34.180,30.762,34.180,24.414,23.926
1642357490.327,29.785,33.691,36.621,20.996,-22.461
1642357490.331,27.344,33.203,39.062,26.855,49.805
1642357490.335,29.297,34.180,34.668,29.785,64.453
1642357490.339,30.762,39.551,39.062,27.344,0.488
1642357490.342,27.832,38.574,40.527,17.090,-0.488
1642357490.346,24.414,37.598,32.715,15.625,15.625
1642357490.350,20.020,36.133,31.250,27.832,34.668
1642357490.354,19.043,35.645,33.691,17.090,36.133
1642357490.358,23.438,38.086,35.156,8.789,31.250
1642357490.360,23.926,36.621,32.715,18.066,35.156
1642357490.364,28.320,35.156,37.109,27.344,81.055
1642357490.368,32.715,39.551,34.668,30.762,31.738
1642357490.372,29.785,40.039,35.156,23.438,-33.203
1642357490.376,23.438,36.621,36.621,18.066,21.973
1642357490.380,16.113,38.574,30.762,18.555,67.871
1642357490.384,13.672,41.504,32.227,21.973,30.762
1642357490.387,22.461,41.016,36.621,13.184,-3.418
1642357490.391,22.461,36.621,31.738,10.742,4.395
1642357490.395,20.996,35.156,20.020,30.762,-0.977
1642357490.399,20.020,36.621,22.949,26.367,-1.953
1642357490.403,22.949,37.109,28.320,8.789,9.766
1642357490.405,22.461,36.621,23.438,13.184,-36.133
1642357490.409,16.602,36.621,23.926,26.367,-14.160
1642357490.413,20.508,36.133,33.203,34.668,69.336
1642357490.417,22.461,37.598,31.250,20.996,54.199
1642357490.421,18.555,38.574,30.273,20.996,10.742
1642357490.425,13.672,34.180,34.180,35.645,7.812
1642357490.429,10.742,29.785,36.621,35.645,64.941
1642357490.432,9.277,30.762,37.109,26.367,50.781
1642357490.436,17.090,35.156,32.227,14.160,-29.785
1642357490.440,14.648,33.203,32.715,13.184,-25.879
1642357490.444,11.719,32.715,40.039,27.832,96.680
1642357490.448,20.020,34.668,30.762,18.555,115.723
1642357490.451,28.320,36.133,29.785,9.766,27.344
1642357490.455,33.203,38.574,32.715,12.695,-11.230
1642357490.459,25.391,37.109,32.715,16.113,26.855
1642357490.463,20.508,37.109,34.668,24.414,86.914
1642357490.467,22.949,35.645,31.250,17.090,20.508
1642357490.471,20.508,33.203,35.645,25.879,-23.926
1642357490.475,20.996,34.180,37.598,28.809,67.871
1642357490.478,25.391,34.180,35.156,19.531,105.469
1642357490.482,23.926,36.621,34.180,9.277,15.137
1642357490.486,25.391,39.062,44.922,-0.488,-37.598
1642357490.490,20.508,36.621,48.828,9.766,0.488
1642357490.494,22.461,36.133,38.086,23.926,53.711
1642357490.495,28.320,38.086,36.621,25.879,39.551
1642357490.499,29.785,35.645,41.504,22.949,-11.719
1642357490.503,27.832,30.762,40.039,35.156,-32.715
1642357490.507,29.785,31.738,39.551,49.805,14.648
1642357490.511,35.645,34.180,41.992,31.250,51.270
1642357490.515,33.691,33.691,39.062,13.672,17.578
1642357490.519,31.738,33.691,41.992,19.043,11.230
1642357490.522,34.180,37.109,40.039,33.691,26.367
1642357490.526,30.273,35.645,34.668,31.250,30.762
1642357490.530,26.367,33.203,43.457,20.020,-13.184
1642357490.534,30.273,35.645,48.340,21.484,-20.508
1642357490.538,19.531,38.086,47.363,25.391,38.086
1642357490.540,19.043,37.598,41.504,22.949,84.473
1642357490.544,23.926,36.621,36.621,18.066,57.129
1642357490.548,12.695,35.645,37.598,12.207,5.859
1642357490.552,14.160,33.691,37.109,12.695,-6.348
1642357490.556,15.137,33.691,37.109,26.855,46.387
1642357490.560,12.207,35.156,35.156,22.461,66.406
1642357490.564,12.207,33.203,36.133,12.695,27.344
1642357490.567,1.953,27.832,36.133,9.277,-20.508
1642357490.571,-0.977,27.344,41.016,7.812,1.465
1642357490.575,5.859,27.344,42.969,20.508,69.824
1642357490.579,19.043,24.902,34.668,22.461,9.277
1642357490.583,24.902,29.297,31.738,18.066,-39.062
1642357490.585,23.438,30.762,39.062,23.926,12.695
1642357490.589,31.250,29.297,41.016,34.180,70.312
1642357490.593,33.691,31.250,35.645,36.133,21.484
1642357490.597,34.180,34.668,38.574,32.715,-42.969
1642357490.601,40.039,37.598,37.598,30.762,-4.883
1642357490.605,43.457,34.180,37.598,34.180,66.406
1642357490.609,39.062,36.621,34.668,29.297,48.828
1642357490.612,37.598,40.527,36.133,19.043,49.316
1642357490.616,34.180,34.180,45.410,18.066,65.430
1642357490.620,29.785,28.809,44.922,23.926,65.918
1642357490.624,26.367,31.250,38.086,22.949,71.777
1642357490.628,23.926,34.180,37.109,14.160,-5.859
1642357490.630,21.973,32.227,43.457,20.020,-25.391
1642357490.634,13.184,29.297,43.457,28.809,22.461
1642357490.638,10.742,30.762,40.039,26.367,87.402
1642357490.642,19.043,31.250,39.062,19.043,82.031
1642357490.646,21.973,33.691,36.621,16.602,-13.672
1642357490.650,16.602,34.180,36.133,26.855,14.648
1642357490.654,15.137,31.250,32.715,23.438,50.781
1642357490.657,20.996,33.691,33.691,13.672,5.859
1642357490.661,25.391,35.645,40.527,14.160,6.348
1642357490.665,20.508,36.621,38.086,19.043,26.367
1642357490.669,20.508,35.156,39.551,34.180,60.547
1642357490.673,23.438,34.668,44.434,34.668,55.664
1642357490.676,35.156,40.039,40.527,26.367,7.812
1642357490.680,37.109,38.086,37.598,39.062,-27.832
1642357490.684,25.879,34.668,39.551,46.875,14.160
1642357490.688,32.715,37.598,36.133,37.109,44.434
1642357490.692,37.598,38.086,32.227,24.902,0.977
1642357490.696,31.738,40.527,27.344,21.484,-21.484
1642357490.700,27.344,40.527,31.250,33.203,-15.137
1642357490.703,22.949,36.621,41.504,29.785,36.133
1642357490.707,27.344,35.645,35.645,21.973,17.090
1642357490.711,27.832,35.156,31.250,12.695,-20.020
1642357490.715,15.625,37.109,30.273,14.160,28.809
1642357490.719,22.461,41.992,31.738,28.809,84.961
1642357490.735,24.902,39.551,32.715,24.414,55.176
1642357490.739,13.672,36.621,29.785,7.812,-14.160
1642357490.743,11.719,35.156,35.156,7.324,-14.160
1642357490.747,11.719,36.133,41.504,22.949,36.133
1642357490.751,19.043,41.504,39.551,19.043,43.945
1642357490.755,23.438,41.504,38.574,11.719,19.043
1642357490.759,19.043,39.551,44.922,15.625,-11.719
1642357490.762,14.160,40.527,47.363,21.973,20.996
1642357490.766,10.742,40.039,39.551,7.812,58.105
1642357490.770,12.695,39.551,37.109,-7.324,38.086
1642357490.774,16.602,39.551,41.016,5.371,-9.277
1642357490.778,13.672,38.574,42.480,22.949,16.113
1642357490.780,10.254,40.039,40.039,17.090,66.895
1642357490.784,18.555,46.387,40.527,8.301,24.902
1642357490.788,17.578,49.805,42.480,9.277,-5.371
1642357490.792,7.324,39.551,38.086,4.395,7.812
1642357490.796,6.836,35.645,40.527,7.324,18.066
1642357490.800,18.066,44.922,46.387,8.301,51.758
1642357490.804,20.996,43.945,51.270,0.000,46.875
1642357490.807,2.441,42.480,49.316,0.000,-1.465
1642357490.811,-8.789,47.363,45.410,10.254,16.602
1642357490.815,-19.531,48.340,50.293,-5.371,13.184
1642357490.819,-20.996,49.805,60.547,-28.809,-5.371
1642357490.823,-20.020,51.270,62.988,-17.090,17.090
1642357490.825,-30.762,49.805,61.035,-12.207,51.758
1642357490.829,-35.156,52.246,62.012,-38.574,71.777
1642357490.833,-29.785,53.711,61.035,-45.898,5.859
1642357490.837,-23.926,51.758,59.570,-35.156,-46.875
1642357490.841,-29.297,51.270,60.547,-22.949,19.043
1642357490.845,-27.832,47.852,57.617,-10.254,72.754
1642357490.849,-20.508,45.410,58.105,-11.719,43.945
1642357490.852,-6.348,49.316,50.293,-11.230,-14.160
1642357490.856,-3.906,45.898,44.434,-8.301,-31.250
1642357490.860,-11.719,40.527,47.852,-9.277,39.551
1642357490.864,-9.277,39.551,44.922,-2.930,38.574
1642357490.868,1.953,39.551,43.457,0.488,3.418
1642357490.870,9.277,38.574,41.016,5.859,7.324
1642357490.874,6.348,37.109,41.992,19.043,46.387
1642357490.878,15.137,38.086,41.504,23.438,84.473
1642357490.882,31.738,41.504,38.086,25.879,44.922
1642357490.886,29.785,42.969,36.133,32.715,15.625
1642357490.890,31.250,35.645,28.809,38.086,31.738
1642357490.894,40.527,32.227,28.809,43.457,61.035
1642357490.897,35.645,34.668,24.902,29.785,24.902
1642357490.901,31.250,31.738,22.949,5.859,1.953
1642357490.905,34.180,26.855,30.273,20.020,23.926
1642357490.909,41.016,29.785,27.344,37.598,46.875
1642357490.913,42.969,32.715,24.414,26.855,15.625
1642357490.917,43.945,31.738,23.926,30.762,-36.133
1642357490.921,39.551,30.762,23.438,34.180,6.348
1642357490.925,35.645,29.785,23.926,32.227,48.828
1642357490.929,38.086,30.273,23.926,32.227,11.719
1642357490.933,46.875,35.645,20.508,29.297,-17.090
1642357490.937,48.340,32.227,17.578,35.156,-19.531
1642357490.941,45.410,29.297,20.996,53.711,15.137
1642357490.944,49.805,32.715,19.043,50.781,47.852
1642357490.948,49.805,32.715,20.996,31.250,20.996
1642357490.952,43.945,29.785,25.391,32.715,-20.996
1642357490.956,42.480,30.273,23.438,42.480,25.879
1642357490.960,40.527,31.738,22.949,41.504,87.891
1642357490.960,40.039,26.855,24.902,30.273,34.180
1642357490.964,45.898,24.902,22.461,32.715,0.977
1642357490.968,41.992,27.832,18.066,41.016,47.852
1642357490.972,44.922,36.621,18.555,49.805,84.961
1642357490.976,49.316,35.645,21.484,44.922,36.621
1642357490.980,47.852,25.879,23.438,42.969,3.418
1642357490.984,41.504,28.320,18.555,52.246,-4.395
1642357490.987,35.645,32.227,22.949,44.434,26.855
1642357490.991,35.645,28.809,36.133,32.227,49.805
1642357490.995,31.738,29.297,37.109,24.414,14.648
1642357490.999,29.785,30.273,34.180,30.762,20.020
1642357491.003,32.227,29.785,30.273,41.992,83.008
1642357491.005,29.297,28.809,28.320,37.109,91.797
1642357491.009,33.691,33.203,33.203,27.832,78.125
1642357491.013,40.039,37.109,31.738,27.344,61.523
1642357491.017,30.762,33.691,25.879,37.109,34.668
1642357491.021,27.344,29.785,28.809,40.039,55.664
1642357491.025,27.344,29.785,28.809,23.438,25.879
1642357491.029,22.461,29.785,25.391,13.184,-18.555
1642357491.032,19.043,28.809,31.738,22.949,-29.785
1642357491.036,27.344,29.297,35.645,32.715,40.527
1642357491.040,28.320,28.320,34.668,24.902,51.270
1642357491.044,22.949,28.809,36.133,20.020,13.184
1642357491.048,26.367,34.668,37.598,23.438,16.602
1642357491.065,22.461,34.180,38.086,28.809,54.688
1642357491.069,21.484,31.738,37.109,24.414,73.730
1642357491.073,24.902,32.715,36.133,19.531,11.719
1642357491.077,21.973,30.762,37.109,18.066,-10.254
1642357491.081,24.902,30.762,37.109,18.066,41.504
1642357491.085,29.297,30.762,36.133,18.555,49.805
1642357491.089,36.133,31.738,37.109,20.020,15.137
1642357491.092,34.668,31.738,37.598,22.461,-12.207
1642357491.096,20.508,30.762,34.180,36.621,-0.977
1642357491.100,19.531,31.738,31.738,32.227,56.641
1642357491.104,20.996,34.180,33.691,9.766,59.570
1642357491.108,18.066,31.250,35.645,0.488,11.230
1642357491.110,16.602,28.809,29.785,7.812,-6.836
1642357491.114,19.531,29.785,28.809,27.344,35.645
1642357491.118,25.879,27.832,30.273,22.461,26.855
1642357491.122,26.855,30.762,28.809,10.742,-19.043
1642357491.126,20.508,36.133,24.902,17.090,-29.785
1642357491.130,22.461,38.086,26.367,26.855,12.695
1642357491.134,20.508,39.062,35.645,23.926,41.992
1642357491.137,17.578,38.574,41.016,23.926,30.273
1642357491.141,18.066,33.203,37.598,20.020,-6.348
1642357491.145,19.043,31.738,34.180,20.996,2.441
1642357491.149,26.367,32.715,44.434,27.344,69.336
1642357491.153,21.484,31.250,43.457,15.137,59.570
1642357491.156,14.160,32.227,30.762,16.113,-9.277
1642357491.160,14.160,32.227,33.691,27.832,6.348
1642357491.164,13.184,30.762,41.016,20.996,65.918
1642357491.168,20.508,33.691,42.969,9.277,28.320
1642357491.172,26.367,35.645,41.016,7.812,-16.113
1642357491.176,21.973,35.156,41.992,19.043,11.230
1642357491.180,20.996,34.180,42.480,29.785,68.848
1642357491.183,30.762,35.156,34.668,25.391,63.477
1642357491.187,36.621,34.668,32.715,30.273,32.227
1642357491.191,26.855,35.156,37.598,33.691,9.766
1642357491.195,19.531,34.180,39.062,26.367,32.715
1642357491.199,21.484,33.691,40.527,20.508,58.105
1642357491.200,23.438,34.180,39.551,4.883,-6.348
1642357491.204,15.625,32.715,36.133,1.465,-30.273
1642357491.208,8.789,31.738,40.527,20.020,8.301
1642357491.212,16.602,34.668,39.062,25.391,59.082
1642357491.216,26.367,37.109,35.645,17.090,11.230
1642357491.220,25.879,33.691,41.504,14.160,-29.297
1642357491.224,31.250,31.250,41.992,27.344,9.277
1642357491.227,32.715,36.133,41.992,46.875,60.547
1642357491.231,26.367,37.109,34.180,35.156,40.039
1642357491.235,31.250,32.715,34.180,20.020,-27.344
1642357491.239,34.668,31.738,42.480,23.926,0.000
1642357491.243,30.762,36.621,37.598,22.461,73.242
1642357491.260,29.297,36.621,35.645,20.508,51.270
1642357491.264,31.250,33.691,37.598,16.602,1.465
1642357491.268,27.832,32.715,35.645,21.973,7.812
1642357491.272,20.996,32.715,37.109,33.691,20.996
1642357491.276,22.949,33.203,38.086,24.902,33.203
1642357491.280,29.785,32.715,37.109,10.254,-14.160
1642357491.284,20.020,33.691,36.133,8.789,-54.199
1642357491.287,12.695,30.762,32.227,19.531,4.883
1642357491.291,16.113,28.809,33.203,27.344,47.852
1642357491.295,20.996,34.180,41.992,25.391,27.344
1642357491.299,28.320,34.668,43.457,24.902,-0.977
1642357491.303,29.297,32.715,40.039,28.320,7.812
1642357491.290,29.785,33.203,38.574,32.715,65.430
1642357491.294,31.250,32.715,38.574,28.320,34.668
1642357491.298,32.715,34.668,36.621,22.949,-8.789
1642357491.302,31.738,34.668,35.156,22.949,10.254
1642357491.306,25.879,32.715,36.621,23.438,49.316
1642357491.310,27.832,33.691,33.203,19.043,57.129
1642357491.314,36.621,34.180,36.621,17.090,19.531
1642357491.317,32.715,35.645,40.039,26.855,-17.090
1642357491.321,25.879,35.156,41.992,38.086,5.859
1642357491.325,26.855,33.203,40.039,21.973,48.828
1642357491.329,35.156,35.156,35.645,9.766,5.859
1642357491.333,32.715,41.016,32.715,12.207,-20.020
1642357491.336,22.949,41.016,37.598,11.719,37.598
1642357491.340,21.484,37.598,41.504,17.090,96.191
1642357491.344,21.973,39.062,36.621,12.207,61.523
1642357491.348,23.926,41.016,37.109,13.672,0.488
1642357491.352,27.832,39.551,40.039,32.715,-0.977
1642357491.356,27.344,39.551,41.504,41.504,66.895
1642357491.360,26.855,41.016,34.180,20.508,73.242
1642357491.363,32.715,37.109,32.227,9.277,0.977
1642357491.367,29.297,38.086,42.969,21.484,-15.625
1642357491.371,28.809,40.039,42.969,33.203,61.523
1642357491.375,35.156,39.062,37.598,25.391,88.867
1642357491.379,33.203,39.062,35.156,7.324,46.387
1642357491.382,25.879,38.086,36.621,10.742,9.766
1642357491.386,27.832,41.504,37.109,29.785,45.898
1642357491.390,33.203,40.527,35.156,39.062,74.219
1642357491.394,30.762,37.109,38.086,22.949,41.016
1642357491.398,24.902,35.645,38.574,14.160,2.930
1642357491.402,24.902,36.621,37.598,22.461,5.371
1642357491.406,23.926,38.086,36.133,24.902,14.160
1642357491.409,28.320,37.109,41.504,19.043,26.367
1642357491.413,32.715,36.621,44.434,19.043,4.883
1642357491.417,27.832,38.574,36.133,26.855,-26.855
1642357491.421,25.391,40.039,34.180,28.320,25.879
1642357491.425,21.484,36.621,36.621,13.672,49.316
1642357491.440,22.461,35.645,33.691,7.812,-6.348
1642357491.444,21.484,40.527,33.203,18.555,-31.738
1642357491.448,14.648,36.133,37.598,20.508,22.949
1642357491.452,23.926,30.273,37.109,21.973,39.062
1642357491.456,33.203,32.715,34.180,21.973,6.836
1642357491.460,26.367,34.180,31.738,18.555,-6.836
1642357491.464,23.438,36.621,31.250,24.414,38.086
1642357491.467,19.043,37.109,36.621,24.902,86.426
1642357491.471,20.996,36.621,36.133,4.883,57.129
1642357491.475,26.367,38.574,33.203,6.836,13.672
1642357491.479,18.066,37.598,32.715,19.531,11.719
1642357491.483,9.277,32.715,37.109,22.949,44.434
1642357491.486,14.160,29.785,37.109,29.785,16.602
1642357491.490,27.832,29.297,36.133,25.879,-20.996
1642357491.494,28.320,31.250,39.551,24.902,6.836
1642357491.498,25.391,33.203,38.086,33.203,59.570
1642357491.502,30.273,32.227,35.645,25.879,63.477
1642357491.506,31.738,33.691,31.738,11.719,9.277
1642357491.510,29.297,32.715,28.320,14.648,-3.906
1642357491.513,29.785,32.227,32.715,27.344,59.082
1642357491.517,24.902,36.133,33.691,26.855,62.500
1642357491.521,25.391,34.668,29.297,20.508,0.977
1642357491.525,24.902,35.156,34.180,14.648,-12.695
1642357491.529,18.066,35.645,41.504,22.461,38.086
1642357491.530,20.996,31.250,39.551,32.715,77.148
1642357491.534,22.461,36.133,36.133,29.297,40.039
1642357491.538,20.508,39.551,37.598,19.531,37.598
1642357491.542,20.996,36.133,37.109,20.020,26.855
1642357491.546,23.926,37.598,36.621,17.578,47.363
1642357491.550,24.414,39.062,39.062,13.672,86.426
1642357491.554,21.973,39.062,38.574,15.137,7.812
1642357491.557,10.742,37.598,42.969,15.137,-28.809
1642357491.561,3.418,34.668,43.457,30.762,26.367
1642357491.565,8.301,34.180,40.527,19.531,35.156
1642357491.569,10.742,35.645,43.457,-2.930,-18.066
1642357491.573,19.043,37.598,45.410,8.301,-16.602
1642357491.575,18.555,41.504,37.109,22.949,35.645
1642357491.579,13.184,42.969,33.691,21.973,44.434
1642357491.583,21.973,40.039,40.527,18.555,33.691
1642357491.587,25.391,38.086,33.203,16.113,-10.742
1642357491.591,20.508,39.062,27.832,21.484,0.977
1642357491.595,17.578,35.645,36.133,24.902,83.984
1642357491.599,15.625,35.156,36.621,20.996,76.660
1642357491.602,20.020,39.551,28.320,17.578,15.625
1642357491.606,18.066,34.668,25.391,13.672,-0.977
1642357491.610,15.625,30.273,34.180,9.766,54.688
1642357491.614,20.020,36.133,38.086,12.207,56.152
1642357491.618,23.926,38.574,33.203,13.672,17.578
1642357491.621,22.949,36.621,30.762,15.625,26.367
1642357491.625,24.414,38.086,32.227,29.297,62.012
1642357491.629,17.090,37.598,34.668,25.879,71.777
1642357491.633,12.695,32.227,32.715,22.949,17.578
1642357491.637,20.996,31.250,33.691,17.578,-41.016
1642357491.641,15.625,38.086,37.598,12.207,33.691
1642357491.645,13.184,37.109,39.551,19.043,97.656
1642357491.648,19.531,34.668,35.156,12.207,25.879
1642357491.652,17.578,40.527,33.691,1.953,-39.551
1642357491.656,10.742,39.062,39.551,12.207,-15.625
1642357491.660,11.230,33.691,41.016,23.926,49.316
1642357491.664,19.043,35.156,37.598,10.742,31.250
1642357491.665,20.996,36.621,34.668,6.348,-7.812
1642357491.669,20.020,36.621,36.621,25.879,28.320
1642357491.673,20.020,37.598,37.598,36.133,78.125
1642357491.677,20.020,36.621,34.180,19.531,70.312
1642357491.681,19.043,34.180,35.645,3.418,52.734
1642357491.685,21.973,35.156,35.645,13.672,40.039
1642357491.689,27.832,35.645,33.203,32.715,27.344
1642357491.692,25.879,35.645,29.785,24.414,18.066
1642357491.696,25.879,38.086,33.203,10.742,2.441
1642357491.700,24.902,37.598,40.527,12.207,8.301
1642357491.704,22.461,38.574,35.645,14.648,22.949
1642357491.708,28.320,42.969,35.156,16.113,65.430
1642357491.710,28.809,41.992,38.574,12.695,65.918
1642357491.714,20.996,37.109,36.621,17.578,24.414
1642357491.718,16.602,40.039,37.109,25.391,14.160
1642357491.722,22.461,42.480,43.457,27.832,79.590
1642357491.726,22.461,35.156,44.434,19.043,83.984
1642357491.730,20.020,35.645,39.062,6.836,49.805
1642357491.734,19.531,40.039,37.598,9.277,40.527
1642357491.737,20.996,38.574,38.086,22.461,62.012
1642357491.741,22.949,39.062,39.551,24.902,54.688
1642357491.745,26.367,39.551,39.062,12.207,1.465
1642357491.749,21.484,37.598,39.062,15.625,17.578
1642357491.753,17.578,37.109,41.504,32.715,57.129
1642357491.755,19.043,37.598,44.922,29.297,79.590
1642357491.759,16.602,37.109,41.992,12.207,21.484
1642357491.763,18.555,36.621,35.645,14.648,-50.781
1642357491.767,16.113,33.691,37.109,26.855,8.789
1642357491.771,17.090,35.645,36.133,26.855,71.777
1642357491.775,23.926,37.109,32.715,17.090,20.996
1642357491.779,28.809,34.180,32.715,3.906,-54.199
1642357491.782,20.996,34.668,41.016,16.113,-48.828
1642357491.786,16.602,36.133,44.434,29.297,53.223
1642357491.790,19.531,33.691,34.668,23.438,34.180
1642357491.794,24.902,33.203,37.598,17.578,-39.062
1642357491.798,26.855,41.016,41.504,7.324,-11.719
1642357491.815,25.879,41.016,40.039,16.602,49.316
1642357491.819,23.438,35.156,37.598,21.973,49.316
1642357491.823,28.320,35.645,36.133,16.113,0.977
1642357491.827,32.227,36.133,40.039,20.020,13.672
1642357491.831,26.855,35.156,41.504,29.297,42.969
1642357491.835,30.273,34.668,36.133,36.621,38.574
1642357491.839,26.855,34.668,41.504,27.832,29.297
1642357491.842,27.344,39.062,46.875,25.879,28.320
1642357491.846,32.227,42.480,41.016,41.504,28.809
1642357491.850,27.344,41.504,39.062,34.668,64.453
1642357491.854,28.809,38.574,39.062,22.461,46.387
1642357491.858,28.809,40.039,37.598,20.020,-4.883
1642357491.860,23.926,40.039,35.156,16.113,1.465
1642357491.864,20.508,39.551,42.480,18.555,49.316
1642357491.868,19.531,39.551,43.457,16.113,56.641
1642357491.872,25.391,36.133,38.574,18.555,-4.883
1642357491.876,22.949,35.156,38.086,20.996,-29.297
1642357491.880,23.926,37.598,34.668,27.832,32.715
1642357491.884,31.250,39.062,34.668,28.809,60.059
1642357491.887,31.250,37.598,36.621,17.090,13.184
1642357491.891,28.809,37.109,33.691,28.320,-25.879
1642357491.895,23.926,37.598,27.832,36.133,-23.438
1642357491.899,18.555,39.551,37.109,24.902,35.156
1642357491.903,20.020,39.551,42.480,19.043,62.500
1642357491.905,25.391,40.527,30.762,13.184,23.438
1642357491.909,25.391,42.969,25.391,30.762,-4.395
1642357491.913,21.973,41.504,30.273,40.039,41.992
1642357491.917,24.902,37.598,31.250,18.066,27.344
1642357491.921,31.738,36.133,29.785,13.184,11.719
1642357491.925,24.902,35.156,26.367,17.578,11.230
1642357491.929,16.602,32.715,27.832,23.926,16.602
1642357491.932,19.043,32.715,31.738,18.555,67.871
1642357491.936,19.531,30.762,25.879,6.836,4.395
1642357491.940,13.184,31.738,25.391,8.789,-57.617
1642357491.944,16.602,35.645,36.133,24.414,28.320
1642357491.948,24.414,35.156,33.203,30.273,90.332
1642357491.950,22.461,34.668,30.762,30.762,35.645
1642357491.954,20.996,36.133,33.203,24.902,-10.254
1642357491.958,23.438,34.668,34.668,16.113,22.461
1642357491.962,22.461,31.738,40.527,17.090,73.730
1642357491.966,24.902,31.250,38.574,16.602,61.523
1642357491.970,28.320,28.809,36.621,21.484,-4.883
1642357491.974,20.996,28.809,41.016,29.297,0.488
1642357491.977,25.391,31.250,37.598,31.738,69.824
1642357491.981,23.438,28.809,29.785,26.367,25.391
1642357491.985,19.531,29.785,36.621,31.250,-28.320
1642357491.989,24.902,36.133,36.133,20.996,6.348
1642357491.993,20.508,34.180,32.227,17.578,45.898
1642357491.996,17.578,35.645,37.109,22.461,46.387
1642357492.000,24.902,37.109,39.062,19.531,16.602
1642357492.004,22.949,33.203,36.133,26.367,11.719
1642357492.008,16.602,33.691,33.203,24.414,67.871
1642357492.012,21.973,36.621,33.203,14.648,77.637
1642357492.016,22.461,34.180,32.715,11.230,0.977
1642357492.020,17.578,34.180,34.668,14.648,-20.996
1642357492.023,14.160,33.691,34.668,15.625,2.441
1642357492.027,16.113,31.250,33.203,18.555,44.434
1642357492.031,15.625,35.645,35.645,17.578,19.043
1642357492.035,10.742,37.598,41.992,15.137,-3.418
1642357492.039,15.137,36.133,38.086,17.578,20.508
1642357492.040,17.090,37.598,33.203,17.578,40.039
1642357492.044,17.578,36.133,35.156,8.301,37.598
1642357492.048,24.902,32.227,31.250,7.324,18.066
1642357492.052,21.973,35.645,30.762,19.531,7.324
1642357492.056,19.043,37.109,36.621,25.879,38.086
1642357492.060,25.879,36.621,32.227,20.996,50.293
1642357492.064,24.902,35.156,31.738,11.230,0.488
1642357492.067,25.391,35.156,32.715,5.859,-13.672
1642357492.071,23.438,40.039,35.645,14.648,47.852
1642357492.075,19.043,37.109,40.527,20.996,48.340
1642357492.079,25.391,33.691,36.621,19.043,18.066
1642357492.083,23.438,39.551,34.668,22.949,2.930
1642357492.086,10.742,41.504,39.551,15.625,21.973
1642357492.090,9.766,34.180,38.086,11.230,61.523
1642357492.094,13.672,31.738,32.227,11.230,16.602
1642357492.098,19.531,34.180,32.227,8.301,-7.812
1642357492.102,19.043,33.691,34.668,20.508,-5.371
1642357492.106,15.137,32.227,34.668,34.180,45.410
1642357492.110,20.020,32.227,32.227,28.320,24.414
1642357492.113,29.297,37.598,35.645,18.555,-28.809
1642357492.117,27.832,40.527,42.480,27.344,6.836
1642357492.121,20.996,34.668,41.016,34.180,45.410
1642357492.125,15.137,31.250,39.551,22.461,23.438
1642357492.129,20.020,30.762,38.574,15.625,19.531
1642357492.130,22.949,32.227,32.715,10.254,16.602
1642357492.134,18.066,34.668,32.227,19.043,27.832
1642357492.138,19.043,34.180,34.668,26.855,53.711
1642357492.142,20.508,30.762,38.574,24.414,39.062
1642357492.146,19.043,27.344,38.086,28.809,31.250
1642357492.150,16.602,31.250,35.645,23.926,36.133
1642357492.154,17.090,36.621,28.809,18.555,46.387
1642357492.157,19.043,32.715,33.691,16.602,16.113
1642357492.161,17.090,27.344,40.039,14.160,-33.691
1642357492.165,15.137,28.320,32.227,27.344,-45.898
1642357492.169,19.531,30.273,36.133,41.504,39.551
1642357492.173,20.020,29.785,37.598,28.809,66.895
1642357492.175,22.461,29.297,33.203,10.742,4.883
1642357492.179,19.043,33.691,32.227,9.277,-44.922
1642357492.183,13.672,36.133,37.598,12.695,23.926
1642357492.187,20.996,33.203,40.527,17.578,60.059
1642357492.191,23.438,32.715,37.598,11.719,29.785
1642357492.195,13.672,30.273,29.785,7.812,-21.973
1642357492.199,11.230,26.367,35.156,27.832,-21.484
1642357492.202,19.043,28.809,45.410,28.809,41.992
1642357492.206,21.973,32.227,41.016,17.090,21.484
1642357492.210,18.066,30.762,32.715,13.184,-27.832
1642357492.214,15.625,34.180,31.250,15.625,-42.480
1642357492.218,13.184,34.668,41.016,27.344,22.949
1642357492.235,18.066,33.691,41.504,19.531,50.293
1642357492.239,25.391,37.109,34.668,7.324,20.020
1642357492.243,24.902,38.574,36.621,13.184,34.180
1642357492.247,23.438,36.621,36.133,15.625,77.637
1642357492.251,20.508,32.227,32.227,13.672,60.059
1642357492.255,19.531,29.785,30.762,8.301,6.836
1642357492.259,19.043,32.715,32.715,18.555,6.836
1642357492.262,19.531,31.250,34.668,34.668,41.992
1642357492.266,21.484,33.691,30.762,30.762,66.406
1642357492.270,20.020,38.086,28.320,16.602,-0.488
1642357492.274,20.020,37.109,37.109,5.859,-35.156
1642357492.278,22.949,38.574,39.062,14.648,28.320
1642357492.280,19.531,36.133,34.180,20.020,57.617
1642357492.284,17.090,34.180,39.062,9.277,34.668
1642357492.288,22.461,38.086,38.574,11.719,-6.836
1642357492.292,21.973,36.133,37.109,30.273,5.859
1642357492.296,17.578,32.227,35.645,30.273,62.988
1642357492.300,15.137,32.715,33.203,10.254,45.898
1642357492.304,19.043,34.180,34.668,7.324,24.902
1642357492.307,18.066,34.180,39.551,7.324,53.711
1642357492.311,15.137,34.180,32.715,11.719,41.504
1642357492.315,19.531,36.621,30.762,16.602,-4.395
1642357492.319,20.508,33.203,47.363,8.789,-3.906
1642357492.323,24.414,33.203,45.898,22.461,-7.812
1642357492.340,21.484,37.109,36.621,34.668,-10.254
1642357492.344,15.625,32.227,37.598,19.531,26.367
1642357492.348,20.996,32.227,39.551,9.766,1.953
1642357492.352,20.508,36.133,40.527,12.695,-13.672
1642357492.356,14.160,37.598,39.062,24.414,48.340
1642357492.360,15.625,36.133,41.504,29.297,73.242
1642357492.364,19.531,37.109,47.363,23.438,26.367
1642357492.367,22.949,38.574,43.945,26.855,-2.930
1642357492.371,19.531,34.668,35.645,19.531,-12.207
1642357492.375,11.719,36.621,39.551,6.348,21.973
1642357492.379,22.461,41.016,40.527,16.602,54.688
1642357492.383,30.273,37.109,36.133,15.625,-9.766
1642357492.386,18.555,34.668,36.621,16.113,-29.297
1642357492.390,18.066,36.133,37.598,28.809,33.203
1642357492.394,18.555,34.180,35.645,26.367,59.570
1642357492.398,21.973,35.645,29.297,19.043,11.719
1642357492.402,34.668,36.621,29.297,17.090,-24.414
1642357492.406,28.809,35.156,34.180,20.020,20.508
1642357492.410,21.484,37.109,35.645,19.043,81.055
1642357492.413,20.996,34.668,33.203,13.184,41.504
1642357492.417,24.414,36.133,35.645,16.113,-4.883
1642357492.421,24.902,36.621,36.133,26.367,30.273
1642357492.425,21.484,31.738,28.809,29.785,56.641
1642357492.429,21.484,26.855,25.391,17.578,10.742
1642357492.416,23.438,27.344,33.691,-2.441,-25.391
1642357492.420,17.090,35.645,41.504,4.395,8.789
1642357492.424,13.184,35.156,38.574,24.414,43.457
1642357492.428,17.578,30.762,38.086,21.973,57.617
1642357492.432,21.484,34.180,37.109,16.113,26.367
1642357492.436,16.113,33.691,38.574,26.855,6.348
1642357492.440,9.766,32.227,38.086,30.762,39.062
1642357492.443,9.277,32.227,38.574,20.508,28.320
1642357492.447,12.207,32.227,44.922,9.766,-6.348
1642357492.451,17.090,31.738,43.457,1.465,2.930
1642357492.455,18.066,31.738,39.551,15.137,33.691
1642357492.459,9.766,31.738,37.598,21.484,40.527
1642357492.461,10.254,31.250,43.457,15.625,25.879
1642357492.465,19.043,31.250,48.340,16.602,26.855
1642357492.469,19.043,32.715,40.527,15.137,-1.465
1642357492.473,17.090,31.250,39.062,17.578,51.758
1642357492.477,15.137,30.273,38.574,25.391,68.848
1642357492.481,21.484,34.668,36.133,26.367,0.000
1642357492.485,17.090,36.621,31.738,16.113,-9.277
1642357492.488,10.742,33.203,31.738,9.766,25.879
1642357492.492,19.531,32.715,38.086,7.324,47.852
1642357492.496,22.949,32.715,40.527,2.930,9.766
1642357492.500,12.695,33.203,37.598,2.441,-7.812
1642357492.504,6.348,34.180,39.551,10.254,43.457
1642357492.505,9.277,34.180,42.969,25.391,70.801
1642357492.509,14.648,35.156,38.574,31.250,18.555
1642357492.513,19.043,37.598,39.062,20.996,-20.020
1642357492.517,18.066,38.574,41.992,19.531,5.371
1642357492.521,19.043,39.551,36.621,25.879,57.617
1642357492.525,21.973,38.574,31.738,28.320,29.297
1642357492.529,29.297,40.527,35.156,30.273,-28.320
1642357492.532,28.809,42.480,43.945,15.137,-13.672
1642357492.536,24.414,41.016,44.922,12.695,59.082
1642357492.540,23.438,40.527,36.133,18.555,37.109
1642357492.544,22.949,41.992,33.691,12.207,-18.555
1642357492.548,24.414,42.480,35.156,20.020,-10.742
1642357492.552,25.879,42.969,39.551,34.180,38.574
1642357492.556,32.227,44.434,37.109,35.645,53.223
1642357492.560,35.156,41.992,33.203,27.344,11.719
1642357492.564,29.785,38.574,37.109,21.484,-3.906
1642357492.568,21.973,36.133,36.133,27.832,31.738
1642357492.572,19.043,35.156,29.297,24.414,56.152
1642357492.576,24.414,36.133,29.785,2.930,17.090
1642357492.579,20.020,36.621,34.668,8.301,-11.230
1642357492.583,13.672,34.180,36.133,17.578,45.410
1642357492.587,20.508,34.668,32.715,14.160,95.703
1642357492.591,18.066,35.645,34.180,19.043,52.246
1642357492.595,14.160,35.645,38.574,19.531,-20.020
1642357492.611,18.066,35.645,38.574,17.578,-19.043
1642357492.615,13.672,33.203,38.086,16.113,53.711
1642357492.619,16.602,33.691,38.574,4.883,41.504
1642357492.623,23.926,35.645,44.434,10.254,-2.930
1642357492.627,18.066,34.180,42.480,18.555,-10.742
1642357492.631,19.043,33.203,33.203,28.320,-5.859
1642357492.635,21.484,33.691,39.062,31.250,40.527
1642357492.638,20.996,36.621,44.922,14.648,42.480
1642357492.642,22.949,41.504,40.039,18.555,-6.836
1642357492.646,23.438,40.039,39.551,28.320,35.645
1642357492.650,19.531,36.133,39.551,23.438,84.473
1642357492.654,20.020,36.621,40.527,21.973,46.875
1642357492.655,23.438,41.016,42.969,21.484,0.977
1642357492.659,21.484,42.969,41.992,20.996,20.508
1642357492.663,17.578,41.504,43.945,29.297,69.824
1642357492.667,15.625,41.016,42.969,16.602,75.195
1642357492.671,24.414,40.527,36.133,1.465,0.000
1642357492.675,24.902,40.527,36.621,18.066,5.371
1642357492.679,15.625,38.086,38.086,30.273,91.797
1642357492.682,12.207,35.645,34.668,18.066,59.082
1642357492.686,15.137,37.109,28.320,5.859,-6.836
1642357492.690,12.207,34.668,28.320,7.812,-46.875
1642357492.694,7.812,32.715,41.016,21.484,21.484
1642357492.698,13.672,37.109,39.062,25.879,71.289
1642357492.701,21.484,37.598,36.621,10.254,23.926
1642357492.705,20.996,35.645,36.621,10.742,3.418
1642357492.709,14.160,38.574,34.180,34.668,41.016
1642357492.713,9.766,39.062,32.715,33.203,74.707
1642357492.717,18.555,37.109,30.762,19.043,-7.324
1642357492.721,23.438,36.621,30.273,7.324,-22.949
1642357492.725,15.137,38.086,31.250,12.207,30.762
1642357492.728,15.625,38.086,33.203,29.785,65.430
1642357492.732,15.625,36.133,26.367,20.020,62.012
1642357492.736,10.742,35.645,28.320,5.859,16.602
1642357492.740,11.719,32.715,38.086,12.695,8.301
1642357492.744,17.578,32.715,34.180,21.484,26.367
1642357492.761,17.090,35.645,33.203,14.648,70.312
1642357492.765,18.555,35.156,37.109,14.648,24.414
1642357492.769,20.020,33.691,37.598,15.137,6.836
1642357492.773,18.555,27.832,36.133,21.973,25.879
1642357492.777,17.090,22.949,37.598,25.879,45.410
1642357492.781,12.207,30.762,38.574,10.742,16.113
1642357492.785,12.695,36.621,37.598,13.184,-40.039
1642357492.788,11.230,33.691,36.133,21.973,-31.250
1642357492.792,15.625,36.621,33.691,12.695,16.602
1642357492.796,23.926,41.504,39.062,8.789,51.758
1642357492.800,23.438,39.062,39.062,20.508,20.996
1642357492.804,19.531,41.016,35.645,23.438,-18.066
1642357492.790,21.973,42.480,40.039,27.832,34.180
1642357492.794,25.879,41.504,38.086,27.344,58.594
1642357492.798,25.879,39.062,35.156,14.160,6.836
1642357492.802,23.438,38.086,37.598,15.625,4.395
1642357492.806,20.996,40.527,41.992,25.391,56.641
1642357492.810,22.461,39.551,40.527,25.391,79.590
1642357492.814,28.320,38.086,34.180,20.508,27.832
1642357492.817,32.227,35.645,35.645,24.902,-28.320
1642357492.821,22.461,35.645,43.945,31.250,6.348
1642357492.825,19.043,36.133,43.945,32.715,78.125
1642357492.829,24.414,34.668,36.621,18.066,45.410
1642357492.833,23.438,38.574,32.715,8.789,-36.133
1642357492.836,14.160,40.039,39.551,16.113,-14.160
1642357492.840,15.137,35.156,38.574,22.461,88.379
1642357492.844,20.508,33.691,31.250,13.184,88.379
1642357492.848,24.902,35.645,34.668,10.254,37.598
1642357492.852,23.438,36.133,38.574,24.414,27.832
1642357492.856,20.508,34.668,38.086,40.527,48.340
1642357492.860,18.066,35.156,34.668,24.414,40.039
1642357492.863,15.625,34.180,33.691,9.277,-41.504
1642357492.867,15.625,32.715,37.598,18.555,-31.250
1642357492.871,17.578,33.691,35.156,22.461,59.570
1642357492.875,12.207,36.621,37.109,13.672,98.633
1642357492.879,16.602,39.062,39.062,12.207,48.828
1642357492.881,25.391,34.668,38.574,19.531,22.461
1642357492.885,28.809,28.320,39.551,24.414,66.406
1642357492.889,28.320,32.227,36.133,26.367,49.805
1642357492.893,26.855,36.621,34.180,12.695,34.668
1642357492.897,30.762,38.574,36.133,9.766,3.906
1642357492.901,29.785,41.504,33.203,28.320,-7.812
1642357492.905,19.531,40.527,28.320,32.227,26.367
1642357492.908,7.812,38.574,35.156,17.578,-0.488
1642357492.912,11.719,40.039,42.969,16.602,-11.230
1642357492.916,14.160,37.109,36.133,20.020,17.090
1642357492.920,12.695,32.715,30.762,21.973,45.898
1642357492.924,19.531,31.738,34.668,27.344,74.219
1642357492.925,23.438,33.691,35.645,20.508,52.734
1642357492.929,20.996,33.203,32.715,18.555,7.812
1642357492.933,19.531,32.227,32.227,31.738,4.883
1642357492.937,15.625,32.715,36.133,30.273,46.875
1642357492.941,15.137,35.645,36.621,16.113,27.832
1642357492.945,21.484,37.109,29.297,11.719,-46.387
1642357492.949,20.996,39.062,36.133,15.137,-23.926
1642357492.952,24.902,41.504,42.480,22.949,43.457
1642357492.956,29.785,40.527,41.992,25.391,30.273
1642357492.960,25.391,41.504,38.574,17.578,-25.391
1642357492.964,20.020,39.062,37.598,24.414,-14.160
1642357492.968,23.438,35.156,41.016,35.645,51.270
1642357492.985,26.367,41.016,38.086,23.438,73.730
1642357492.989,24.902,41.504,37.109,7.324,32.227
1642357492.993,25.391,35.156,35.156,18.066,-2.441
1642357492.997,24.902,34.180,34.668,30.273,41.504
1642357493.001,24.414,37.109,31.250,22.949,48.828
1642357493.005,21.484,41.992,29.297,10.742,-14.648
1642357493.009,19.043,39.551,34.668,9.766,-31.250
1642357493.012,14.648,35.645,37.109,14.648,5.859
1642357493.016,14.160,36.621,31.250,12.207,51.758
1642357493.020,18.555,30.273,29.297,8.789,12.207
1642357493.024,22.461,32.227,33.691,10.742,-1.953
1642357493.028,18.555,39.551,36.133,23.438,35.645
1642357493.030,13.672,38.574,32.227,22.461,60.059
1642357493.034,14.160,39.062,29.297,8.301,33.691
1642357493.038,17.090,38.574,34.180,2.930,-29.785
1642357493.042,20.996,36.621,37.598,10.254,-25.879
1642357493.046,25.879,38.574,42.480,21.973,48.340
1642357493.050,29.297,37.109,41.016,30.762,52.734
1642357493.054,24.902,33.691,38.574,25.879,12.695
1642357493.057,22.461,34.180,36.621,8.301,-10.742
1642357493.061,20.508,35.156,32.715,7.324,14.160
1642357493.065,17.090,36.133,34.668,7.812,19.043
1642357493.069,21.484,35.156,41.992,6.836,-11.719
1642357493.073,26.855,35.156,37.598,13.184,0.488
1642357493.076,24.414,33.203,32.715,20.996,73.242
1642357493.080,26.367,36.133,34.180,33.691,110.352
1642357493.084,26.855,36.621,36.621,28.320,49.316
1642357493.088,25.391,36.133,35.156,12.695,-14.160
1642357493.092,32.715,36.621,31.250,21.484,8.301
1642357493.096,34.668,31.738,32.227,29.297,49.805
1642357493.100,30.273,32.715,32.715,13.672,14.648
1642357493.103,36.133,34.668,30.273,11.719,-36.621
1642357493.107,35.645,31.738,28.809,23.926,-28.809
1642357493.111,28.320,31.738,35.156,26.855,49.805
1642357493.115,28.809,33.203,38.574,22.461,70.801
1642357493.119,26.855,35.156,35.156,19.531,-17.090
1642357493.121,24.902,35.645,40.039,36.133,2.441
1642357493.125,27.832,38.086,41.992,43.457,67.871
1642357493.129,28.320,35.645,39.551,33.203,83.496
1642357493.133,29.297,31.738,37.109,18.066,52.734
1642357493.137,32.227,37.109,38.086,9.766,-15.625
1642357493.141,33.203,38.574,40.527,25.391,18.555
1642357493.145,32.227,36.133,39.062,32.715,85.938
1642357493.148,31.738,36.133,35.156,24.902,51.758
1642357493.152,26.855,38.574,33.203,18.066,-18.555
1642357493.156,20.508,35.645,40.527,25.391,5.859
1642357493.160,17.090,34.668,42.480,37.109,63.965
1642357493.164,13.672,35.645,40.527,30.762,53.711
1642357493.165,20.508,34.180,41.504,19.531,16.113
1642357493.169,20.996,34.668,38.086,14.160,20.020
1642357493.173,15.625,36.133,33.203,12.207,55.176
1642357493.177,15.137,36.133,32.715,6.836,43.457
1642357493.181,15.625,33.691,34.668,5.371,-7.324
1642357493.185,21.484,32.227,34.180,11.230,-9.277
1642357493.189,17.578,35.645,35.645,33.691,40.527
1642357493.192,7.812,33.691,31.738,30.762,73.730
1642357493.196,13.184,29.297,34.180,0.977,-6.348
1642357493.200,20.996,35.645,41.992,2.441,-26.367
1642357493.204,20.020,39.062,40.039,25.879,38.086
1642357493.208,15.137,36.133,41.504,39.062,63.965
1642357493.210,21.484,33.691,39.551,35.156,37.598
1642357493.214,23.926,34.668,37.109,23.926,6.836
1642357493.218,19.043,33.691,34.668,19.043,-7.812
1642357493.222,17.090,33.203,38.574,31.250,50.781
1642357493.226,17.090,31.250,38.574,26.367,86.914
1642357493.230,22.461,32.227,34.668,10.254,25.391
1642357493.234,17.578,35.156,27.832,9.277,-8.789
1642357493.237,8.301,28.320,30.762,26.367,25.879
1642357493.241,10.254,27.832,41.992,23.926,84.961
1642357493.245,19.043,34.180,36.133,7.812,64.941
1642357493.249,15.137,28.809,34.668,10.254,9.766
1642357493.253,10.254,28.320,41.504,25.391,31.738
1642357493.255,15.625,34.180,41.016,29.785,72.754
1642357493.259,21.484,32.227,40.527,17.578,26.367
1642357493.263,20.996,32.715,41.992,10.742,-18.066
1642357493.267,20.996,36.133,41.504,24.902,9.766
1642357493.271,20.508,32.715,42.480,32.227,65.430
1642357493.275,20.508,32.227,38.086,26.367,55.664
1642357493.279,25.879,34.180,32.715,20.020,32.715
1642357493.282,22.461,33.203,37.109,6.348,49.805
1642357493.286,25.879,36.133,40.527,14.160,68.359
1642357493.290,24.902,35.156,37.598,20.996,30.273
1642357493.294,21.484,32.715,38.086,17.090,-25.391
1642357493.298,26.367,32.715,41.992,20.508,-20.508
1642357493.301,27.832,34.668,42.969,46.387,38.574
1642357493.305,29.297,38.086,36.133,49.805,47.363
1642357493.309,29.785,39.551,35.156,4.883,-31.738
1642357493.313,29.297,41.016,43.457,9.766,-47.852
1642357493.317,27.344,38.086,42.969,32.715,5.859
1642357493.321,23.926,36.133,34.180,20.508,65.918
1642357493.325,31.738,39.551,34.180,15.625,68.359
1642357493.328,37.109,41.016,38.574,21.484,5.371
1642357493.332,27.832,38.086,36.133,23.438,-6.348
1642357493.336,22.461,32.715,37.598,30.762,37.109
1642357493.340,26.367,30.762,39.551,21.484,35.156
1642357493.344,27.344,33.691,36.133,8.789,-12.207
1642357493.361,25.391,30.273,37.109,19.531,18.066
1642357493.365,26.367,32.227,37.598,33.203,64.453
1642357493.369,23.926,36.621,35.645,30.273,49.805
1642357493.373,28.809,31.738,35.156,20.508,30.273
1642357493.377,24.902,29.297,32.227,27.344,3.906
1642357493.381,18.555,33.203,27.832,37.598,5.371
1642357493.385,26.855,36.621,31.250,27.832,33.691
1642357493.388,26.367,33.691,39.062,16.113,43.457
1642357493.392,20.508,30.762,35.156,12.207,8.301
1642357493.396,17.090,32.715,35.156,21.973,25.879
1642357493.400,15.137,33.203,40.039,26.855,55.664
1642357493.404,23.926,35.156,42.969,14.648,76.172
1642357493.405,23.926,37.109,39.551,19.531,61.523
1642357493.409,17.578,33.203,38.086,31.738,17.578
1642357493.413,15.625,29.785,43.457,35.645,65.430
1642357493.417,14.160,29.785,40.527,20.996,57.129
1642357493.421,19.531,34.180,38.086,12.695,-29.297
1642357493.425,15.625,38.086,38.086,17.578,-32.715
1642357493.429,13.672,37.598,39.551,22.949,47.852
1642357493.432,20.996,39.062,40.527,20.020,90.332
1642357493.436,24.902,40.039,35.645,11.230,54.199
1642357493.440,22.461,37.598,32.227,18.555,-9.277
1642357493.444,11.230,35.645,41.016,28.320,32.715
1642357493.448,9.766,33.691,40.039,15.625,73.242
1642357493.450,19.043,34.668,32.715,4.395,-9.766
1642357493.454,19.043,37.598,35.645,13.672,-59.082
1642357493.458,16.602,39.551,41.016,27.344,3.418
1642357493.462,17.578,36.133,39.062,23.926,47.363
1642357493.466,18.066,36.621,31.738,9.277,5.859
1642357493.470,16.602,35.156,33.203,19.531,8.301
1642357493.474,14.648,36.133,34.180,27.344,35.156
1642357493.477,16.602,39.062,29.785,23.926,62.988
1642357493.481,20.020,36.621,26.367,15.137,16.113
1642357493.485,27.344,36.133,32.227,5.859,-31.738
1642357493.489,24.902,37.598,36.133,18.066,34.180
1642357493.493,20.020,40.039,30.762,32.715,82.520
1642357493.495,14.160,37.598,31.250,25.879,76.172
1642357493.499,17.090,37.109,38.086,12.695,38.574
1642357493.503,22.461,39.062,35.645,2.441,-2.930
1642357493.507,18.555,38.574,31.738,12.695,-5.859
1642357493.511,18.555,36.621,35.645,17.090,13.672
1642357493.515,21.484,38.086,39.062,11.230,-4.395
1642357493.519,20.508,37.109,37.598,8.789,-4.395
1642357493.522,22.949,34.668,33.691,15.625,5.859
1642357493.526,21.484,32.715,34.180,26.855,21.484
1642357493.530,19.043,37.598,39.062,18.066,60.547
1642357493.534,20.508,41.504,40.039,5.859,30.273
1642357493.538,19.531,38.086,40.039,18.555,-4.395
1642357493.542,24.902,40.039,39.062,40.039,49.316
1642357493.546,23.438,38.574,37.598,20.020,65.430
1642357493.550,20.508,34.180,36.621,2.441,22.461
1642357493.554,26.367,35.156,36.621,9.277,16.113
1642357493.558,26.367,36.621,36.133,15.625,40.039
1642357493.562,24.414,37.109,32.715,19.043,57.129
1642357493.566,29.297,32.715,28.809,14.648,11.719
1642357493.569,23.926,32.227,26.367,17.578,-25.879
1642357493.573,15.625,33.691,33.203,26.367,16.602
1642357493.577,14.160,30.762,39.551,27.344,65.430
1642357493.581,21.484,32.715,36.621,18.555,9.766
1642357493.585,26.855,34.180,36.133,10.742,-40.527
1642357493.585,25.391,35.156,40.039,23.438,7.324
1642357493.589,21.484,35.645,36.621,28.320,41.992
1642357493.593,18.555,35.645,35.645,6.836,30.273
1642357493.597,20.996,34.668,38.086,2.930,14.648
1642357493.601,13.672,27.344,41.016,13.672,-20.996
1642357493.605,7.324,25.879,42.480,28.809,16.113
1642357493.609,7.324,29.785,36.133,34.180,52.734
1642357493.612,5.859,25.391,35.645,11.230,-7.324
1642357493.616,7.324,27.344,40.039,-6.348,-11.230
1642357493.620,8.789,34.668,41.504,13.672,56.641
1642357493.624,9.277,34.180,41.504,22.461,83.008
1642357493.628,13.184,32.227,42.480,23.438,32.715
1642357493.630,13.184,34.668,41.504,19.531,-19.043
1642357493.634,10.742,33.691,39.062,11.230,23.926
1642357493.638,14.648,31.738,37.109,26.855,52.246
1642357493.642,19.531,31.250,36.133,22.949,-3.906
1642357493.646,14.160,33.691,36.621,5.859,-21.973
1642357493.650,9.766,37.109,32.227,13.672,3.906
1642357493.654,10.742,36.621,27.344,26.367,13.672
1642357493.657,12.695,35.156,35.156,13.184,-12.207
1642357493.661,22.949,39.062,42.969,10.254,-6.348
1642357493.665,29.785,42.969,36.621,25.879,7.812
1642357493.669,28.320,38.574,37.109,33.203,35.156
1642357493.673,20.020,39.551,38.574,20.508,71.289
1642357493.690,20.996,41.504,39.551,2.930,40.039
1642357493.694,23.926,35.156,35.645,4.883,-8.789
1642357493.698,20.996,38.086,28.320,19.043,15.625
1642357493.702,25.879,41.504,28.809,17.578,70.312
1642357493.706,38.086,39.062,26.855,4.883,22.461
1642357493.710,39.551,39.551,21.973,7.324,-58.594
1642357493.714,26.855,41.016,29.785,19.531,5.371
1642357493.717,25.391,40.527,36.133,30.762,64.453
1642357493.721,29.297,38.574,33.691,25.879,20.020
1642357493.725,25.879,36.133,32.227,9.277,-42.480
1642357493.729,21.973,35.156,34.180,6.348,-32.227
1642357493.733,20.996,35.156,42.480,19.531,66.895
1642357493.735,19.531,35.645,41.992,19.531,85.449
1642357493.739,20.020,33.203,38.574,11.719,14.648
1642357493.743,15.625,30.762,40.527,19.531,-8.301
1642357493.747,19.043,35.156,42.480,33.691,80.078
1642357493.751,16.113,35.645,39.062,27.832,100.586
1642357493.755,16.113,35.156,36.133,9.277,13.184
1642357493.759,13.184,37.598,38.086,7.324,-38.574
1642357493.762,6.348,39.551,43.457,11.230,45.898
1642357493.766,14.648,41.504,41.016,10.254,87.402
1642357493.770,22.949,37.109,36.621,11.230,31.738
1642357493.774,25.879,33.691,40.039,20.020,18.066
1642357493.778,28.809,35.645,39.062,19.531,23.926
1642357493.780,20.996,35.645,36.621,19.531,47.852
1642357493.784,16.113,35.645,32.715,11.230,54.199
1642357493.788,26.367,36.133,30.273,0.977,17.578
1642357493.792,21.973,36.133,31.738,12.207,-17.090
1642357493.796,20.996,33.691,35.156,23.438,20.020
1642357493.800,20.996,29.785,37.109,24.414,31.738
1642357493.804,20.508,30.273,38.574,19.531,7.324
1642357493.807,20.508,34.668,40.527,16.113,17.090
1642357493.811,13.672,33.691,37.109,19.043,40.039
1642357493.815,14.160,31.738,38.086,11.719,37.598
1642357493.819,20.996,35.645,42.480,10.254,14.160
1642357493.823,18.066,35.156,38.574,17.090,24.414
1642357493.826,15.625,30.762,37.109,25.879,59.570
1642357493.830,17.578,31.738,40.039,28.320,71.777
1642357493.834,20.020,36.133,37.598,15.625,55.664
1642357493.838,25.879,36.621,31.250,10.742,20.996
1642357493.842,21.973,34.180,33.203,25.391,5.859
1642357493.846,17.578,31.738,39.062,28.320,49.805
1642357493.850,23.926,31.738,42.480,11.230,22.949
1642357493.853,22.461,34.180,41.016,8.789,-7.812
1642357493.857,21.973,36.621,37.598,15.137,14.160
1642357493.861,28.809,36.133,41.016,22.949,55.664
1642357493.865,24.414,36.621,43.945,18.555,75.195
1642357493.869,20.996,37.109,41.016,20.508,20.996
1642357493.871,21.973,33.691,40.527,24.414,-3.906
1642357493.875,24.414,33.203,41.504,39.062,37.598
1642357493.879,29.297,33.691,38.086,40.527,74.707
1642357493.883,25.391,30.273,40.039,27.344,26.855
1642357493.887,14.160,31.250,38.574,20.996,-5.859
1642357493.891,14.648,34.180,32.227,15.137,24.902
1642357493.895,21.484,32.715,35.156,19.531,59.570
1642357493.898,23.438,28.320,35.156,27.832,21.484
1642357493.902,24.902,33.691,35.156,23.926,-3.418
1642357493.906,24.414,38.574,43.945,24.902,32.715
1642357493.910,28.809,37.598,41.504,38.574,72.754
1642357493.914,34.668,34.668,35.156,43.457,60.547
1642357493.915,29.785,33.203,33.691,40.039,6.836
1642357493.919,21.484,34.180,32.715,36.621,16.113
1642357493.923,26.855,34.180,34.668,38.086,47.852
1642357493.927,32.227,35.645,38.574,20.020,69.336
1642357493.931,29.297,35.645,40.039,6.348,14.648
1642357493.935,25.879,35.645,37.598,20.996,-32.227
1642357493.939,22.949,34.668,44.922,37.598,30.762
1642357493.942,22.461,28.809,43.457,27.344,37.598
1642357493.946,25.879,28.320,45.410,15.137,0.488
1642357493.950,25.879,35.645,47.363,8.301,-16.602
1642357493.954,25.879,37.109,41.504,12.695,20.996
1642357493.958,26.367,37.109,41.504,20.508,89.355
1642357493.960,23.926,36.133,43.945,15.625,70.801
1642357493.964,20.508,37.109,46.387,14.648,47.852
1642357493.968,13.184,39.551,34.180,15.137,32.227
1642357493.972,17.578,37.598,31.738,23.438,28.320
1642357493.976,17.090,37.598,40.527,21.973,25.391
1642357493.980,20.996,38.574,38.086,16.602,-28.809
1642357493.984,21.973,37.109,37.598,29.297,-13.672
1642357493.987,11.230,33.203,38.574,19.043,51.270
1642357493.991,16.602,36.133,37.598,1.953,57.617
1642357493.995,27.832,39.551,35.156,9.277,14.160
1642357493.999,24.902,33.691,36.621,18.555,-33.691
1642357494.003,21.973,30.273,39.062,31.250,15.137
1642357494.007,19.043,32.715,38.086,35.156,78.613
1642357494.011,21.484,34.180,31.250,22.949,4.883
1642357494.015,28.809,36.621,33.203,12.207,-25.391
1642357494.019,24.902,37.598,37.598,20.508,37.109
1642357494.023,26.855,33.203,33.203,38.086,58.594
1642357494.027,38.574,30.273,32.227,26.367,45.410
1642357494.031,35.645,33.691,31.738,2.441,-4.395
1642357494.034,23.438,38.086,35.156,11.230,-17.578
1642357494.038,20.996,35.645,40.039,30.762,3.906
1642357494.042,25.391,36.133,35.645,25.879,19.043
1642357494.046,34.180,38.574,32.227,18.066,-7.812
1642357494.050,32.715,38.086,35.156,18.555,-11.719
1642357494.066,26.367,35.645,35.645,21.484,50.781
1642357494.070,24.902,31.738,32.715,30.273,58.105
1642357494.074,24.902,35.156,32.715,19.531,31.738
1642357494.078,25.391,35.645,35.156,13.672,-4.883
1642357494.082,20.996,35.156,38.086,27.344,5.371
1642357494.086,21.484,34.180,34.668,35.645,50.781
1642357494.090,26.855,30.762,33.691,25.879,26.855
1642357494.093,18.066,30.273,38.086,9.766,7.324
1642357494.097,15.137,30.762,35.156,21.484,12.695
1642357494.101,18.555,28.320,40.039,32.715,48.828
1642357494.105,15.137,24.902,41.016,13.672,41.016
1642357494.109,23.926,28.809,33.203,2.930,-12.695
1642357494.110,24.414,29.297,38.086,13.184,29.297
1642357494.114,20.020,30.273,37.598,24.414,84.473
1642357494.118,22.461,34.180,31.250,21.484,51.270
1642357494.122,25.391,35.156,30.273,12.695,-13.184
1642357494.126,27.344,39.062,29.297,9.277,-38.574
1642357494.130,25.879,39.062,30.762,15.625,20.508
1642357494.134,22.461,39.551,36.621,12.207,78.125
1642357494.137,20.996,40.039,36.133,0.977,24.902
1642357494.141,20.020,35.645,35.645,1.465,-17.090
1642357494.145,21.484,35.156,34.668,11.719,23.438
1642357494.149,26.855,37.109,37.598,22.461,49.805
1642357494.153,31.738,36.133,41.992,25.391,13.672
1642357494.170,38.086,36.621,39.551,27.832,-10.254
1642357494.174,38.086,37.598,37.109,27.832,-20.996
1642357494.178,27.344,37.598,37.598,37.109,20.508
1642357494.182,25.879,34.668,38.086,34.180,52.246
1642357494.186,32.715,31.250,35.156,29.297,15.137
1642357494.190,26.367,35.645,35.645,41.992,-7.812
1642357494.194,25.391,37.598,38.574,54.688,49.805
1642357494.197,32.227,31.250,43.457,55.176,92.285
1642357494.201,33.691,32.227,34.668,33.203,36.133
1642357494.205,31.250,34.180,29.785,25.391,-17.578
1642357494.209,28.320,34.180,41.992,35.645,40.039
1642357494.213,24.902,31.738,40.039,52.734,84.473
1642357494.200,23.926,27.344,37.598,34.180,5.859
1642357494.204,24.414,33.203,37.598,-3.418,-18.066
1642357494.208,22.461,38.086,35.156,5.859,26.367
1642357494.212,27.344,37.598,35.156,20.508,35.156
1642357494.216,27.344,37.598,33.203,9.277,20.020
1642357494.220,28.320,38.574,32.227,-2.441,15.137
1642357494.224,25.879,35.645,33.203,0.977,19.531
1642357494.227,22.949,40.527,35.645,14.160,51.758
1642357494.231,23.438,41.992,37.109,18.555,43.457
1642357494.235,13.672,34.180,45.410,23.438,18.066
1642357494.239,2.930,35.156,49.316,18.555,6.836
1642357494.243,4.883,39.062,42.480,11.230,52.246
1642357494.246,7.812,39.062,34.668,11.719,80.566
1642357494.250,13.184,34.668,41.016,12.207,17.090
1642357494.254,20.020,31.250,46.387,10.742,-7.324
1642357494.258,18.555,32.715,43.945,10.742,54.199
1642357494.262,20.508,31.250,48.340,24.902,80.078
1642357494.266,25.879,31.250,51.758,25.391,9.277
1642357494.270,23.926,36.621,52.246,23.438,-21.973
1642357494.273,20.508,35.156,49.316,31.738,12.207
1642357494.277,27.344,29.785,47.363,27.832,50.293
1642357494.281,28.320,30.762,53.223,12.695,43.457
1642357494.285,27.344,33.203,51.270,12.207,13.672
1642357494.289,29.297,34.668,45.898,27.344,17.090
1642357494.291,27.344,30.273,48.340,36.621,50.781
1642357494.295,26.855,28.809,47.363,31.738,67.383
1642357494.299,38.086,36.133,42.969,27.832,8.789
1642357494.303,39.062,33.691,43.945,31.738,-15.625
1642357494.307,22.949,31.250,44.434,44.434,46.387
1642357494.311,14.160,38.086,36.133,38.086,68.848
1642357494.315,14.648,40.039,34.180,6.348,27.832
1642357494.318,15.137,37.598,33.203,-2.930,-2.441
1642357494.322,17.090,39.551,33.203,8.301,24.414
1642357494.326,22.461,43.945,38.086,16.113,74.707
1642357494.330,30.762,42.969,31.738,12.695,15.625
1642357494.334,38.086,38.086,26.367,9.277,-28.809
1642357494.336,40.039,37.598,28.320,40.527,16.602
1642357494.340,39.062,40.039,29.297,54.688,72.754
1642357494.344,46.875,38.574,24.414,27.832,78.613
1642357494.348,51.758,41.504,24.414,11.230,11.719
1642357494.352,38.086,47.363,26.367,0.977,-0.977
1642357494.356,36.621,44.434,24.414,14.648,66.895
1642357494.360,45.410,44.434,22.949,25.879,70.312
1642357494.363,41.016,46.875,24.414,5.371,1.953
1642357494.367,41.016,47.363,32.715,0.000,-5.371
1642357494.371,44.434,46.875,36.133,16.113,74.219
1642357494.375,40.039,43.945,31.738,20.020,83.496
1642357494.379,42.969,38.086,31.738,13.672,24.902
1642357494.381,43.945,40.527,32.715,5.371,-6.348
1642357494.385,33.691,46.875,32.715,15.137,0.977
1642357494.389,30.273,46.387,32.715,33.691,44.922
1642357494.393,24.902,41.504,33.691,28.809,17.578
1642357494.397,13.672,41.992,35.156,16.113,-39.551
1642357494.401,11.230,40.039,32.715,28.320,34.180
1642357494.405,20.020,39.551,30.273,41.992,43.945
1642357494.408,19.043,40.039,39.062,22.461,13.184
1642357494.412,19.531,34.180,41.992,11.230,31.250
1642357494.416,16.113,31.738,35.645,19.043,6.348
1642357494.420,6.348,31.738,39.551,31.738,59.570
1642357494.424,17.090,29.297,42.969,33.691,67.871
1642357494.440,27.832,29.785,41.504,28.809,-10.254
1642357494.444,24.414,30.762,40.039,33.203,3.418
1642357494.448,27.344,29.785,40.039,38.574,57.617
1642357494.452,34.668,33.203,35.645,32.715,44.434
1642357494.456,33.691,33.203,37.109,24.414,3.418
1642357494.460,36.621,32.227,35.645,25.879,-0.488
1642357494.464,39.551,34.668,31.250,39.551,14.160
1642357494.467,39.062,33.691,38.086,41.016,29.297
1642357494.471,40.527,32.715,39.551,39.062,-1.953
1642357494.475,36.133,35.156,39.062,26.855,-24.902
1642357494.479,27.832,36.621,37.109,7.812,13.184
1642357494.483,25.391,37.598,32.715,22.949,57.617
1642357494.485,20.508,37.598,34.180,20.020,46.387
1642357494.489,18.066,34.668,35.156,5.859,-35.645
1642357494.493,13.672,28.809,40.527,17.578,-39.062
1642357494.497,4.883,22.461,48.828,30.762,64.941
1642357494.501,1.465,23.926,47.363,28.320,58.105
1642357494.505,3.418,26.855,44.922,13.672,-2.930
1642357494.509,0.488,27.344,44.922,3.418,0.000
1642357494.512,-2.441,28.320,48.340,15.625,36.133
1642357494.516,0.977,32.715,46.387,17.578,99.609
1642357494.520,0.977,34.180,36.621,8.789,36.621
1642357494.524,3.418,33.203,44.922,14.648,-5.371
1642357494.528,6.348,36.133,51.270,21.973,47.363
1642357494.530,6.836,33.691,41.992,25.391,42.969
1642357494.534,6.348,31.738,40.527,13.184,-5.371
1642357494.538,12.695,34.668,41.504,0.000,-18.066
1642357494.542,15.137,37.109,40.039,4.395,16.113
1642357494.546,14.648,36.621,40.039,1.465,54.688
1642357494.550,23.438,36.621,38.086,4.883,49.805
1642357494.554,21.973,38.086,37.598,2.441,-37.109
1642357494.557,13.184,39.551,35.156,1.465,-50.293
1642357494.561,15.137,39.551,31.250,18.066,24.414
1642357494.565,12.207,37.598,34.668,21.484,52.246
1642357494.569,13.672,38.574,40.527,15.137,10.254
1642357494.573,21.484,38.574,39.062,19.043,4.883
1642357494.575,18.555,35.645,38.574,24.414,55.176
1642357494.579,20.020,35.156,36.133,31.738,85.938
1642357494.583,20.508,34.180,35.645,25.391,41.504
1642357494.587,20.020,33.203,35.645,8.789,0.977
1642357494.591,24.414,35.645,31.738,13.672,11.230
1642357494.595,16.602,40.039,30.762,20.996,44.922
1642357494.599,14.160,39.551,33.691,22.949,35.156
1642357494.602,21.484,37.598,36.133,20.508,-31.250
1642357494.606,17.090,38.086,32.227,15.625,-43.457
1642357494.610,14.160,41.504,38.086,20.508,37.109
1642357494.614,13.184,37.109,41.992,15.137,75.684
1642357494.618,9.277,30.762,33.691,3.418,1.465
1642357494.620,10.742,35.645,31.738,10.742,-34.180
1642357494.624,14.648,38.574,35.156,38.086,34.180
1642357494.628,18.555,37.109,37.598,36.133,62.012
1642357494.632,25.879,38.574,34.180,9.766,-5.371
1642357494.636,29.785,37.109,36.133,9.277,-33.203
1642357494.640,23.926,39.062,36.621,20.020,11.230
1642357494.644,21.973,40.039,36.621,19.043,64.453
1642357494.647,30.762,38.086,37.109,9.277,72.266
1642357494.651,29.785,40.527,37.598,2.930,11.230
1642357494.655,21.484,36.621,44.434,20.996,-13.184
1642357494.659,22.949,34.180,41.016,27.832,31.250
1642357494.663,25.391,35.645,37.109,12.695,43.945
1642357494.665,27.832,38.086,41.016,19.043,22.461
1642357494.669,25.879,40.039,41.992,20.020,-9.277
1642357494.673,30.273,41.016,35.645,19.531,27.832
1642357494.677,34.180,44.922,31.250,18.066,55.176
1642357494.681,25.391,44.434,32.227,11.719,14.648
1642357494.685,21.973,40.527,26.367,18.066,-5.371
1642357494.689,24.414,39.551,25.879,28.809,34.180
1642357494.692,27.344,44.434,26.855,31.738,52.734
1642357494.696,32.715,41.992,28.320,45.898,8.301
1642357494.700,33.691,32.227,31.738,34.180,-6.836
1642357494.704,28.809,33.203,26.855,10.742,10.254
1642357494.708,35.645,36.621,24.414,25.391,65.430
1642357494.712,38.574,39.551,27.832,20.996,41.504
1642357494.716,31.250,40.039,30.273,6.348,6.836
1642357494.720,29.297,36.621,28.320,20.996,-16.113
1642357494.724,27.832,33.203,36.133,30.762,12.207
1642357494.728,28.809,33.203,44.922,26.367,78.125
1642357494.732,27.832,33.691,42.969,32.227,23.926
1642357494.736,22.461,31.250,38.086,27.832,-13.672
1642357494.739,17.578,31.250,40.039,26.367,33.691
1642357494.743,16.602,29.785,46.875,25.879,51.758
1642357494.747,18.555,27.832,44.922,12.695,59.570
1642357494.751,17.578,33.203,41.504,20.996,14.160
1642357494.755,15.625,32.227,41.992,29.785,-8.301
1642357494.755,15.137,31.250,40.527,19.043,63.965
1642357494.759,21.484,31.738,37.109,14.648,35.645
1642357494.763,19.043,26.367,39.062,19.043,-8.789
1642357494.767,16.113,31.250,41.016,15.137,29.785
1642357494.771,17.090,40.039,39.551,8.789,79.102
1642357494.775,15.137,36.133,36.621,5.859,47.363
1642357494.779,18.555,33.203,31.250,-3.418,0.977
1642357494.782,9.277,36.133,30.273,-3.418,6.348
1642357494.786,4.395,36.621,39.062,7.812,40.039
1642357494.790,10.742,33.691,37.109,16.113,62.500
1642357494.794,20.020,35.645,36.133,23.438,35.645
1642357494.798,21.973,39.062,41.992,13.672,29.297
1642357494.815,21.973,41.016,40.527,17.090,51.758
1642357494.819,23.438,37.109,38.086,20.996,46.875
1642357494.823,26.855,36.133,40.039,10.742,1.953
1642357494.827,30.762,36.133,39.551,17.090,-21.973
1642357494.831,28.320,30.273,37.109,32.227,36.621
1642357494.835,27.832,30.273,33.203,37.598,62.012
1642357494.839,28.320,33.203,40.039,20.020,-3.418
1642357494.842,25.391,32.227,55.176,17.578,9.766
1642357494.846,15.137,32.227,54.199,32.227,45.898
1642357494.850,6.836,35.645,44.922,30.762,44.922
1642357494.854,13.672,32.227,41.016,20.508,-13.184
1642357494.858,22.461,29.785,45.410,24.902,-33.203
1642357494.860,15.137,32.227,40.527,26.367,13.672
1642357494.864,10.254,32.227,40.527,21.973,60.547
1642357494.868,10.254,30.762,45.410,13.184,79.590
1642357494.872,12.695,35.156,41.992,-3.906,32.227
1642357494.876,13.672,37.598,41.504,2.441,4.883
1642357494.880,14.648,33.203,41.016,18.555,54.199
1642357494.884,18.066,36.621,39.062,21.484,60.059
1642357494.887,19.531,40.039,38.574,14.160,21.484
1642357494.891,20.020,38.086,34.180,9.277,10.254
1642357494.895,18.555,37.109,30.762,13.184,9.277
1642357494.899,19.531,40.527,36.621,17.090,42.969
1642357494.903,23.926,37.598,40.039,18.555,34.180
1642357494.905,23.438,35.156,36.621,22.949,-18.066
1642357494.909,19.043,39.551,37.598,23.438,12.207
1642357494.913,20.020,38.574,43.457,19.043,74.707
1642357494.917,26.367,35.645,49.316,13.184,71.777
1642357494.921,26.855,37.598,45.410,7.812,28.809
1642357494.925,24.414,35.156,42.480,16.602,-2.930
1642357494.929,27.344,32.227,46.875,29.297,22.949
1642357494.932,25.391,34.668,49.316,32.715,51.758
1642357494.936,29.785,36.133,45.410,32.715,47.363
1642357494.940,22.949,39.062,41.504,18.555,18.555
1642357494.944,10.254,41.016,43.945,15.137,45.410
1642357494.948,4.395,38.574,39.551,15.625,68.848
1642357494.951,12.207,32.715,36.133,11.719,-14.648
1642357494.955,17.090,27.344,41.016,14.648,-39.062
1642357494.959,5.371,28.809,41.016,16.113,8.301
1642357494.963,8.301,30.762,38.086,17.578,77.637
1642357494.967,14.160,30.273,37.598,18.555,64.453
1642357494.971,14.648,28.320,39.062,17.090,-11.230
1642357494.975,14.160,27.344,41.992,19.531,12.207
1642357494.978,13.672,32.715,34.668,28.320,53.711
1642357494.982,17.090,31.738,31.250,27.832,31.250
1642357494.986,22.461,26.855,39.551,25.391,11.230
1642357494.990,20.508,28.809,41.504,18.555,24.902
1642357494.994,16.602,31.250,36.133,20.996,53.711
1642357494.995,22.949,30.273,36.133,29.297,26.367
1642357494.999,30.273,30.273,39.551,15.137,-14.160
1642357495.003,28.320,34.180,36.621,15.137,-17.578
1642357495.007,27.344,36.133,35.156,34.180,-0.488
1642357495.011,31.250,37.109,35.645,37.598,55.176
1642357495.015,31.738,41.504,32.715,27.344,23.926
1642357495.019,29.785,41.504,31.250,21.973,-32.715
1642357495.022,31.250,34.668,29.297,33.203,-7.812
1642357495.026,28.809,34.180,27.832,38.086,27.832
1642357495.030,29.297,36.621,32.227,16.113,46.875
1642357495.034,27.344,36.133,29.297,12.207,-1.465
1642357495.038,16.602,37.109,29.297,23.438,-2.441
1642357495.040,17.578,40.039,31.738,25.391,45.898
1642357495.044,20.020,35.156,34.668,20.020,47.852
1642357495.048,23.438,31.738,34.180,10.254,-19.531
1642357495.052,17.578,36.621,38.086,8.789,-25.391
1642357495.056,12.695,36.621,41.504,19.043,32.227
1642357495.060,24.414,38.574,37.109,15.137,25.391
1642357495.064,30.762,39.551,39.551,5.371,7.812
1642357495.067,30.762,36.621,37.109,17.578,17.090
1642357495.071,35.645,37.109,36.133,27.832,39.551
1642357495.075,34.668,35.645,45.410,25.391,93.750
1642357495.079,35.156,36.133,42.480,23.438,48.340
1642357495.083,34.180,38.574,40.039,20.020,-0.977
1642357495.085,32.227,34.668,43.457,18.555,15.625
1642357495.089,35.156,32.715,42.969,31.250,40.527
1642357495.093,35.645,31.738,41.016,25.391,56.641
1642357495.097,37.109,31.738,40.527,14.160,15.625
1642357495.101,39.551,31.250,42.480,25.391,30.273
1642357495.105,41.016,32.715,38.574,38.574,78.125
1642357495.109,35.156,37.109,31.738,40.039,41.504
1642357495.112,35.156,34.180,32.227,36.133,12.695
1642357495.116,32.227,35.156,39.062,25.879,-12.207
1642357495.120,24.902,42.969,45.898,29.785,39.062
1642357495.124,22.949,41.016,41.504,33.691,68.848
1642357495.128,24.902,37.598,41.992,17.578,17.090
1642357495.130,30.762,39.062,44.434,11.230,5.371
1642357495.134,27.832,40.039,37.598,21.973,3.906
1642357495.138,20.996,38.086,38.574,23.438,60.547
1642357495.142,21.973,38.086,38.086,23.438,34.180
1642357495.146,25.391,38.086,37.109,22.461,-48.340
1642357495.150,23.438,37.109,36.133,15.625,-31.250
1642357495.154,25.391,38.574,31.738,28.320,1.953
1642357495.157,29.785,40.527,35.645,21.973,7.324
1642357495.161,26.367,39.551,41.504,4.395,-5.859
1642357495.165,18.555,35.645,35.645,8.301,8.301
1642357495.169,20.020,33.203,30.273,23.926,61.523
1642357495.173,24.902,35.645,32.227,26.367,40.527
1642357495.176,22.949,37.598,36.621,13.672,-6.836
1642357495.180,21.973,36.133,32.715,8.789,-18.066
1642357495.184,23.926,37.109,34.668,21.973,27.344
1642357495.188,28.320,38.086,38.086,23.438,64.941
1642357495.192,30.762,34.668,34.180,20.020,43.945
1642357495.196,26.855,31.250,32.227,21.484,28.320
1642357495.200,19.531,34.668,32.715,9.766,20.996
1642357495.203,13.672,37.598,39.062,10.254,58.594
1642357495.207,8.789,35.645,39.551,3.418,19.043
1642357495.211,9.766,31.250,37.109,1.465,-11.719
1642357495.215,7.812,31.250,36.133,17.578,45.410
1642357495.219,4.395,33.203,37.598,32.715,69.336
1642357495.236,12.695,33.203,35.645,26.855,46.387
1642357495.240,18.555,35.645,32.715,12.207,-5.859
1642357495.244,16.602,36.621,33.203,12.695,0.488
1642357495.248,16.602,32.715,30.273,18.066,49.316
1642357495.252,20.508,34.180,28.809,12.695,34.668
1642357495.256,20.020,36.621,27.832,8.301,5.371
1642357495.260,11.719,34.668,31.738,14.160,-33.691
1642357495.263,5.371,33.203,37.598,12.207,2.930
1642357495.267,-2.441,31.738,31.738,4.883,60.059
1642357495.271,-2.441,27.832,34.180,5.859,5.371
1642357495.275,3.418,29.297,41.504,8.789,-19.043
1642357495.279,-0.488,28.320,40.039,13.184,10.254
1642357495.280,0.977,26.855,35.645,18.066,40.527
1642357495.284,9.277,29.785,35.156,9.766,-0.488
1642357495.288,11.230,26.855,37.109,-2.930,-38.086
1642357495.292,13.672,25.879,38.086,18.066,13.184
1642357495.296,19.531,29.785,37.598,29.297,71.289
1642357495.300,21.484,31.250,34.668,26.855,14.160
1642357495.304,28.809,32.227,37.598,26.855,-31.250
1642357495.307,33.203,35.645,41.504,20.996,15.625
1642357495.311,38.574,37.598,35.645,38.086,87.891
1642357495.315,38.574,34.668,30.273,35.645,39.551
1642357495.319,32.715,35.156,37.598,17.090,3.906
1642357495.323,26.855,37.109,37.109,14.648,38.086
1642357495.325,20.508,34.180,33.203,22.461,41.504
1642357495.329,16.113,32.227,34.668,26.855,39.062
1642357495.333,20.996,35.156,34.180,23.438,19.043
1642357495.337,27.344,38.086,32.715,22.949,-4.883
1642357495.341,18.066,38.086,32.227,25.879,-4.395
1642357495.345,19.531,36.621,30.762,33.203,37.109
1642357495.349,20.996,34.668,30.273,22.461,19.531
1642357495.352,18.555,37.109,28.809,10.742,-28.320
1642357495.356,19.531,43.945,29.785,13.672,10.254
1642357495.360,15.625,42.480,30.762,5.371,55.664
1642357495.364,14.648,38.574,29.785,3.906,41.504
1642357495.368,17.090,38.086,28.320,-1.953,-9.766
1642357495.370,14.160,37.598,31.250,0.977,-36.621
1642357495.374,16.602,40.039,38.086,24.414,41.016
1642357495.378,17.578,40.527,36.621,13.672,106.934
1642357495.382,13.184,38.574,30.273,2.441,48.340
1642357495.386,12.207,38.086,33.203,0.488,2.441
1642357495.390,9.766,40.527,35.645,-5.859,51.270
1642357495.394,12.207,41.504,36.621,10.254,63.477
1642357495.397,17.090,40.527,37.109,16.602,28.320
1642357495.401,24.414,41.016,34.180,9.766,-18.066
1642357495.405,28.320,40.039,41.992,22.461,-13.184
1642357495.409,22.949,37.109,43.457,30.762,74.707
1642357495.413,20.508,38.574,34.668,17.090,72.266
1642357495.415,27.344,41.016,33.203,18.555,-12.695
1642357495.419,23.926,37.598,36.621,20.508,-25.879
1642357495.423,22.949,38.086,36.621,21.973,49.316
1642357495.427,27.832,41.016,32.715,21.973,67.871
1642357495.431,22.461,37.598,32.227,8.789,-9.766
1642357495.435,20.996,34.668,33.691,9.277,25.391
1642357495.439,22.461,39.062,33.203,32.227,85.938
1642357495.442,21.484,38.574,29.785,22.461,73.730
1642357495.446,20.996,36.621,33.203,3.906,20.020
1642357495.450,25.391,39.551,39.062,15.625,-15.625
1642357495.454,25.391,39.062,35.156,23.926,-2.441
1642357495.458,16.113,37.598,36.133,29.297,23.438
1642357495.461,9.277,39.062,42.480,17.090,19.531
1642357495.465,16.602,39.551,46.875,16.602,20.020
1642357495.469,22.949,39.551,41.016,34.180,-4.883
1642357495.473,18.066,39.062,40.039,38.086,12.207
1642357495.477,23.438,38.086,40.527,32.227,43.457
1642357495.481,31.250,36.621,39.062,22.949,-5.859
1642357495.485,33.691,36.621,41.992,24.902,-9.766
1642357495.488,36.133,37.598,41.992,36.133,46.875
1642357495.492,42.480,40.039,49.316,35.156,69.824
1642357495.496,44.434,37.598,44.922,26.855,4.395
1642357495.500,35.645,39.062,40.039,18.555,-20.020
1642357495.504,25.879,43.457,46.387,15.137,26.367
1642357495.506,23.438,41.016,48.828,19.531,50.293
1642357495.510,18.555,41.992,41.992,16.113,6.836
1642357495.514,10.742,39.062,39.062,6.348,-37.598
1642357495.518,14.160,38.086,49.316,17.090,-8.301
1642357495.522,10.742,41.016,54.688,19.043,69.824
1642357495.526,0.000,39.551,44.922,-1.953,29.297
1642357495.530,5.859,38.574,41.504,-2.441,-30.273
1642357495.533,8.789,41.016,49.805,6.836,-25.879
1642357495.537,2.930,47.852,60.059,8.789,20.020
1642357495.541,-2.441,51.758,59.570,-10.254,40.039
1642357495.545,-5.371,51.758,61.035,-28.320,33.691
1642357495.549,-15.625,55.664,63.477,-26.367,21.484
1642357495.565,-29.297,57.617,62.500,-13.184,20.020
1642357495.569,-28.809,53.223,62.012,-15.137,77.148
1642357495.573,-20.020,53.711,55.176,-24.414,35.645
1642357495.577,-25.879,56.641,57.129,-30.273,-9.766
1642357495.581,-27.344,54.688,60.547,-19.043,33.203
1642357495.585,-13.184,51.270,51.270,0.488,45.898
1642357495.589,-5.371,49.805,51.758,2.441,58.594
1642357495.592,0.977,45.410,54.199,-5.859,62.012
1642357495.596,1.953,36.621,47.363,15.137,31.738
1642357495.600,8.789,36.133,39.551,36.621,44.922
1642357495.604,22.461,41.016,38.574,16.113,51.270
1642357495.608,34.180,42.480,37.109,3.906,34.180
1642357495.610,32.227,40.527,26.367,18.066,-7.812
1642357495.614,26.855,33.691,27.832,36.133,12.207
1642357495.618,33.203,32.715,31.250,36.133,51.270
1642357495.622,40.527,37.598,26.855,27.344,22.949
1642357495.626,37.109,33.691,29.297,28.320,6.348
1642357495.630,39.551,33.691,28.809,41.504,39.062
1642357495.634,41.504,35.645,27.832,47.852,69.336
1642357495.637,37.109,31.250,25.879,38.574,34.180
1642357495.641,41.992,28.320,21.484,30.273,32.715
1642357495.645,42.480,30.273,21.484,41.504,46.387
1642357495.649,41.504,30.273,28.809,48.340,57.617
1642357495.653,40.527,23.926,33.691,29.785,37.598
1642357495.655,42.969,21.973,27.832,18.555,-4.395
1642357495.659,46.875,24.414,26.855,36.621,7.812
1642357495.663,44.922,25.879,34.668,46.875,61.035
1642357495.667,40.039,25.391,36.621,35.156,59.082
1642357495.671,40.039,23.926,27.344,28.320,15.625
1642357495.675,36.621,25.391,23.926,39.062,-29.297
1642357495.679,36.621,27.344,27.832,50.781,-14.160
1642357495.682,40.039,25.391,32.715,47.852,70.801
1642357495.686,40.527,24.414,28.809,31.738,35.645
1642357495.690,41.992,30.273,26.855,24.902,-26.367
1642357495.694,42.969,32.715,37.598,41.992,41.504
1642357495.698,39.551,31.250,35.645,49.805,93.262
1642357495.701,40.039,30.273,30.762,34.668,51.270
1642357495.705,47.363,28.320,28.320,31.250,-5.859
1642357495.709,45.898,27.832,29.297,36.621,1.953
1642357495.713,46.875,28.809,35.156,35.156,63.477
1642357495.717,45.898,28.809,33.691,31.738,19.043
1642357495.721,40.527,25.391,30.273,24.414,-5.859
1642357495.725,40.527,25.879,33.203,32.715,21.484
1642357495.728,37.598,28.809,36.133,37.598,49.316
1642357495.732,30.762,29.785,30.762,22.949,29.297
1642357495.736,31.738,27.344,38.574,20.996,-3.906
1642357495.740,40.527,28.809,44.922,32.715,14.160
1642357495.744,40.039,32.227,37.598,44.434,28.809
1642357495.745,34.180,31.250,37.109,37.598,45.410
1642357495.749,34.668,32.715,38.574,22.461,47.363
1642357495.753,33.203,30.762,36.621,40.039,23.926
1642357495.757,25.391,28.809,33.691,48.340,10.254
1642357495.761,26.367,28.809,33.203,37.109,42.480
1642357495.765,32.227,31.738,39.551,28.320,11.230
1642357495.769,35.645,36.133,41.992,29.297,-13.184
1642357495.772,29.297,30.762,39.551,42.969,13.672
1642357495.776,17.090,26.367,38.574,32.715,28.320
1642357495.780,21.973,28.320,41.504,28.809,52.246
1642357495.784,34.668,28.320,40.039,31.738,46.875
1642357495.788,29.785,29.785,35.645,21.484,31.250
1642357495.790,25.879,32.227,30.273,23.438,73.242
1642357495.794,30.273,32.715,28.320,21.973,88.867
1642357495.798,31.738,29.297,27.344,16.602,9.277
1642357495.802,26.855,30.762,30.273,18.555,-5.859
1642357495.806,21.973,36.621,31.738,23.438,52.734
1642357495.810,26.855,36.133,26.855,27.832,67.383
1642357495.814,35.156,35.645,25.879,25.879,17.578
1642357495.817,31.250,30.762,22.949,30.273,-72.266
1642357495.821,21.973,33.691,29.297,39.062,-24.414
1642357495.825,22.949,37.109,38.574,34.180,71.777
1642357495.829,24.902,33.691,33.691,22.461,34.668
1642357495.833,23.926,37.598,31.250,17.090,-17.090
1642357495.835,18.066,37.598,39.551,23.926,10.742
1642357495.839,19.531,37.598,40.039,30.762,66.895
1642357495.843,25.391,39.062,32.227,20.508,44.922
1642357495.847,28.809,34.668,32.227,13.672,6.348
1642357495.851,24.902,31.250,34.668,14.648,15.625
1642357495.855,26.367,34.180,30.762,30.273,49.805
1642357495.859,25.391,33.203,25.391,33.203,41.992
1642357495.862,20.020,30.762,27.832,9.277,15.137
1642357495.866,15.137,33.203,28.809,7.812,-7.812
1642357495.870,16.113,34.668,27.344,21.973,41.504
1642357495.874,27.832,37.109,30.273,27.344,71.777
1642357495.878,39.062,41.504,26.367,29.297,6.836
1642357495.880,43.457,40.527,26.855,28.809,-54.199
1642357495.884,44.434,38.574,28.809,28.809,-19.531
1642357495.888,42.480,41.504,28.809,30.762,60.547
1642357495.892,33.203,40.039,34.668,22.949,52.734
1642357495.896,29.297,37.598,34.668,16.113,17.578
1642357495.900,22.949,35.156,31.738,31.738,36.133
1642357495.904,20.020,28.320,32.227,44.922,68.359
1642357495.907,21.484,32.227,36.621,24.414,53.223
1642357495.911,18.066,39.062,41.016,11.230,6.836
1642357495.915,16.113,35.645,37.109,19.531,-18.555
1642357495.919,21.484,32.227,36.133,35.156,38.574
1642357495.923,18.555,32.715,38.086,35.156,86.914
1642357495.926,15.137,34.180,32.227,24.902,38.086
1642357495.930,20.020,33.691,30.762,34.668,5.371
1642357495.934,14.648,33.691,38.574,43.945,72.754
1642357495.938,13.184,31.738,40.527,35.156,60.547
1642357495.942,19.043,32.227,39.551,25.391,27.344
1642357495.946,22.949,36.133,33.691,19.531,38.574
1642357495.950,17.090,34.668,34.180,20.996,20.020
1642357495.953,11.230,31.738,43.457,22.461,62.988
1642357495.957,20.996,32.227,39.551,15.137,69.824
1642357495.961,29.785,35.645,33.691,12.207,-2.441
1642357495.965,19.043,37.598,30.762,20.996,-47.852
1642357495.969,21.484,37.109,31.250,35.645,20.508
1642357495.985,25.879,36.621,30.762,18.066,50.293
1642357495.989,18.066,35.645,30.762,-1.465,-14.160
1642357495.993,24.414,37.598,35.156,9.766,-16.602
1642357495.997,30.273,38.086,35.645,29.785,36.133
1642357496.001,27.832,32.715,35.156,28.320,54.199
1642357496.005,30.762,32.715,33.691,23.438,8.789
1642357496.009,27.344,30.762,37.598,25.879,-18.555
1642357496.012,24.414,32.227,44.434,39.551,33.203
1642357496.016,28.809,31.738,36.621,36.133,55.176
1642357496.020,19.043,28.320,36.621,11.230,16.113
1642357496.024,4.883,37.109,41.504,1.465,12.695
1642357496.028,0.977,37.598,41.016,4.883,56.152
1642357496.030,6.348,38.574,35.156,20.020,55.176
1642357496.034,11.230,38.574,33.203,19.043,15.625
1642357496.038,16.113,33.203,37.598,13.672,-31.738
1642357496.042,15.625,34.668,36.133,27.344,-29.297
1642357496.046,18.555,35.645,29.297,38.574,15.137
1642357496.050,18.555,35.645,29.785,26.855,45.410
1642357496.054,18.555,35.156,35.645,20.020,-10.254
1642357496.057,24.414,36.133,38.086,20.020,-22.949
1642357496.061,21.484,34.668,35.156,22.949,34.668
1642357496.065,25.391,35.645,33.203,22.949,34.180
1642357496.069,36.133,40.527,37.598,18.555,26.367
1642357496.073,31.738,41.016,41.016,21.973,6.836
1642357496.075,28.809,39.551,32.227,36.621,36.133
1642357496.079,25.879,38.574,27.344,33.691,65.918
1642357496.083,20.020,37.598,31.250,13.184,31.738
1642357496.087,19.043,37.109,25.879,8.789,17.578
1642357496.091,17.578,37.598,24.902,10.742,44.922
1642357496.095,18.066,36.621,26.855,24.414,51.270
1642357496.099,20.508,37.598,29.785,27.832,40.039
1642357496.102,23.926,38.574,25.391,19.043,2.441
1642357496.106,30.762,38.086,21.973,24.414,-61.035
1642357496.110,25.879,40.527,24.902,31.738,3.418
1642357496.114,14.648,35.645,25.391,28.809,62.988
1642357496.118,17.578,32.227,25.391,17.090,18.555
1642357496.120,19.043,36.621,27.832,19.043,-24.902
1642357496.124,21.484,35.645,32.227,29.297,-0.488
1642357496.128,26.367,33.691,34.668,21.973,43.457
1642357496.132,32.715,37.109,32.715,6.836,14.648
1642357496.136,32.227,35.645,34.180,11.719,-32.227
1642357496.140,30.762,37.598,38.574,30.273,6.836
1642357496.144,33.203,41.504,38.086,36.621,86.914
1642357496.147,25.391,37.109,34.668,24.902,34.668
1642357496.151,22.461,34.180,32.715,18.555,-27.832
1642357496.155,20.508,36.133,39.062,14.160,-5.859
1642357496.159,15.625,38.574,41.504,11.719,65.918
1642357496.163,17.090,36.621,38.086,9.766,77.148
1642357496.167,14.160,31.250,33.691,-0.488,10.254
1642357496.171,4.395,30.762,33.691,12.695,5.371
1642357496.175,1.465,32.227,35.156,31.738,66.406
1642357496.179,8.301,34.180,32.227,25.879,87.891
1642357496.183,19.531,36.133,29.297,17.090,-0.488
1642357496.187,16.113,37.109,27.344,16.113,-38.086
1642357496.191,13.672,37.109,33.691,21.484,10.254
1642357496.194,10.254,35.156,37.109,5.859,22.461
1642357496.198,12.207,37.109,39.551,-3.418,-22.949
1642357496.202,16.602,40.039,40.039,7.324,-29.785
1642357496.206,10.742,40.527,36.621,16.602,-4.395
1642357496.210,11.719,41.504,36.621,23.926,30.273
1642357496.210,14.648,41.016,39.551,20.996,29.297
1642357496.214,18.555,39.062,41.016,20.020,24.414
1642357496.218,17.090,38.574,39.551,20.508,21.484
1642357496.222,16.602,38.086,36.621,17.578,41.016
1642357496.226,20.508,38.574,36.621,16.602,55.176
1642357496.230,20.508,39.062,36.621,11.230,-18.555
1642357496.234,15.625,37.109,33.691,4.883,-30.273
1642357496.237,12.695,35.645,34.668,7.812,38.086
1642357496.241,13.672,35.645,41.504,12.695,29.785
1642357496.245,15.625,35.156,43.945,14.160,10.254
1642357496.249,15.625,36.133,38.086,12.695,-0.977
1642357496.253,14.648,35.156,36.133,19.531,22.949
1642357496.255,18.555,34.180,37.598,23.926,85.449
1642357496.259,21.973,34.668,33.691,22.949,37.598
1642357496.263,24.902,38.086,32.715,36.133,-4.883
1642357496.267,22.949,38.574,33.203,38.574,20.996
1642357496.271,25.879,36.133,33.203,28.809,57.129
1642357496.275,34.180,37.109,32.227,20.508,70.312
1642357496.279,31.250,38.086,29.297,15.625,-9.766
1642357496.282,26.855,38.574,37.598,14.160,-48.828
1642357496.286,30.273,39.062,49.805,23.438,37.598
1642357496.290,27.832,37.598,44.922,24.414,62.500
1642357496.294,32.227,35.156,41.992,20.996,42.969
1642357496.298,32.227,36.133,40.527,29.785,15.137
1642357496.300,33.691,39.062,40.527,29.785,43.457
1642357496.304,37.109,39.551,38.086,23.438,45.898
1642357496.308,28.320,37.109,41.016,13.672,-2.441
1642357496.312,18.555,35.156,43.457,5.859,-18.066
1642357496.316,6.836,34.668,36.621,6.836,-9.277
1642357496.320,11.230,35.645,31.738,14.160,42.969
1642357496.324,20.508,36.621,33.203,7.324,26.367
1642357496.327,11.719,34.668,40.527,6.348,-25.879
1642357496.331,10.254,33.203,41.504,21.973,34.668
1642357496.335,17.090,35.156,32.227,20.020,81.055
1642357496.339,20.508,34.668,31.250,1.953,35.645
1642357496.343,25.391,33.203,36.133,5.859,29.785
1642357496.360,25.391,36.133,33.203,25.391,21.973
1642357496.364,16.602,36.621,30.762,29.785,47.852
1642357496.368,15.625,36.133,30.762,9.277,38.086
1642357496.372,19.043,37.598,31.250,-4.883,-6.836
1642357496.376,21.484,39.551,30.762,3.418,10.254
1642357496.380,23.438,41.016,28.320,13.672,35.645
1642357496.384,18.555,40.527,31.738,12.695,102.539
1642357496.387,26.855,41.504,32.227,3.418,81.543
1642357496.391,29.297,38.086,29.785,6.348,-2.441
1642357496.395,15.625,34.668,30.273,21.484,9.766
1642357496.399,15.625,42.480,36.133,25.879,66.406
1642357496.403,21.484,44.922,37.109,7.324,77.637
1642357496.406,23.438,40.527,33.691,5.371,20.020
1642357496.410,14.648,39.551,35.645,24.902,-12.207
1642357496.414,14.160,38.574,39.551,32.227,48.828
1642357496.418,9.766,39.551,37.598,15.625,79.102
1642357496.422,9.277,41.016,33.691,3.418,44.434
1642357496.426,14.648,35.156,32.227,18.066,-2.930
1642357496.430,10.742,31.250,36.621,31.250,41.504
1642357496.433,12.207,33.691,41.992,26.367,88.379
1642357496.437,19.043,34.668,32.715,21.973,22.461
1642357496.441,13.184,35.645,22.949,23.926,-37.109
1642357496.445,6.836,36.621,30.762,23.926,0.000
1642357496.449,10.742,35.645,31.738,21.973,45.898
1642357496.450,14.648,37.109,32.227,24.414,22.461
1642357496.454,20.996,36.133,34.180,32.715,3.418
1642357496.458,20.996,34.668,34.180,36.621,10.742
1642357496.462,16.602,30.273,37.598,26.855,22.461
1642357496.466,19.531,31.250,37.598,14.648,8.789
1642357496.470,22.949,34.668,36.133,6.836,-33.203
1642357496.474,18.066,31.250,40.039,12.695,-15.625
1642357496.477,21.484,31.250,43.457,29.297,66.406
1642357496.481,31.250,32.715,41.016,36.621,69.336
1642357496.485,31.250,36.133,45.410,21.484,11.230
1642357496.489,26.367,41.016,44.922,15.625,-13.184
1642357496.493,30.762,39.062,39.062,25.391,2.441
1642357496.495,28.320,36.133,41.504,20.020,7.324
1642357496.499,26.367,41.016,41.016,10.254,-10.254
1642357496.503,31.738,44.434,40.527,14.648,-8.789
1642357496.507,27.832,41.504,42.480,28.809,26.855
1642357496.511,29.785,40.527,39.551,33.691,44.922
1642357496.515,35.645,40.527,39.062,23.926,15.137
1642357496.519,29.297,40.527,40.039,20.020,-4.395
1642357496.522,30.273,38.086,37.109,27.344,7.812
1642357496.526,33.203,37.109,35.645,36.621,39.062
1642357496.530,18.555,38.086,41.992,23.438,43.457
1642357496.534,14.160,38.086,41.504,11.719,35.645
1642357496.538,13.184,35.645,34.668,16.113,-1.953
1642357496.540,12.695,33.203,37.598,28.320,24.414
1642357496.544,16.602,31.738,41.504,25.391,51.270
1642357496.548,21.484,32.715,36.621,11.719,3.906
1642357496.552,21.973,37.598,28.320,20.020,-27.344
1642357496.556,14.160,32.715,31.738,19.531,20.020
1642357496.560,17.090,32.715,27.832,11.230,47.363
1642357496.564,27.832,39.062,25.879,7.324,7.812
1642357496.567,23.926,38.086,28.320,5.859,-43.945
1642357496.571,13.672,35.156,31.738,15.137,-19.531
1642357496.575,20.508,37.109,36.133,17.090,81.055
1642357496.579,26.855,38.086,32.715,15.625,56.641
1642357496.583,25.879,34.180,34.180,6.348,6.348
1642357496.585,27.832,34.668,40.039,0.977,36.621
1642357496.589,23.926,36.621,38.086,13.672,99.121
1642357496.593,22.949,35.645,33.203,12.207,57.129
1642357496.597,35.156,37.598,38.574,13.672,1.953
1642357496.601,35.156,39.062,37.109,22.949,23.438
1642357496.605,35.645,39.062,33.203,41.016,46.875
1642357496.609,38.574,38.574,32.715,35.645,57.617
1642357496.612,35.156,39.062,32.715,10.742,31.738
1642357496.616,29.785,41.016,34.668,6.348,-20.996
1642357496.620,25.391,39.551,33.203,20.020,-3.418
1642357496.624,22.461,38.086,34.180,26.855,69.336
1642357496.628,22.949,36.621,32.715,19.531,68.848
1642357496.631,23.438,37.598,33.691,27.344,25.879
1642357496.635,17.578,35.645,38.086,33.203,26.367
1642357496.639,19.531,33.203,34.180,26.367,54.199
1642357496.643,21.484,32.227,34.180,19.043,34.180
1642357496.647,16.602,31.738,37.109,13.672,29.297
1642357496.651,18.066,29.785,30.762,12.207,-16.113
1642357496.655,21.484,27.832,29.785,21.484,-16.602
1642357496.658,20.508,33.691,35.645,19.043,38.086
1642357496.662,27.832,40.527,37.598,16.602,14.648
1642357496.666,26.855,40.527,37.109,18.555,11.230
1642357496.670,15.137,37.109,37.598,19.043,54.688
1642357496.674,14.648,38.086,36.621,26.367,53.223
1642357496.676,23.926,41.016,36.133,21.973,7.324
1642357496.680,28.809,38.086,32.715,18.066,-23.438
1642357496.684,27.832,36.133,36.621,37.109,28.809
1642357496.688,28.320,37.598,43.945,42.480,79.590
1642357496.692,26.367,32.715,43.945,31.738,55.664
1642357496.696,17.578,30.762,41.992,30.762,38.574
1642357496.700,15.137,32.715,37.109,21.484,6.836
1642357496.703,21.484,33.203,41.992,23.926,40.039
1642357496.707,18.066,31.738,42.969,25.879,26.367
1642357496.711,14.648,30.762,40.527,31.250,-35.645
1642357496.715,18.066,31.250,40.527,39.551,-18.555
1642357496.719,18.555,33.203,41.504,32.715,38.574
1642357496.751,18.555,35.156,41.504,23.926,94.727
1642357496.755,23.438,34.668,39.551,20.996,38.574
1642357496.759,18.066,32.227,41.992,22.461,-17.578
1642357496.763,8.789,34.668,43.945,25.879,26.855
1642357496.767,11.719,36.621,40.039,27.344,67.383
1642357496.771,32.227,33.691,38.574,26.855,29.297
1642357496.775,33.203,32.227,40.527,25.879,16.113
1642357496.778,17.090,32.715,40.039,22.461,26.855
1642357496.782,21.484,31.250,41.992,22.461,12.695
1642357496.786,24.414,30.762,41.016,15.625,-1.465
1642357496.790,21.973,31.738,42.480,9.766,-18.555
1642357496.794,20.020,31.738,46.875,20.020,-11.719
1642357496.780,21.484,32.715,41.016,32.715,40.039
1642357496.784,22.461,34.180,36.621,34.180,20.996
1642357496.788,20.996,36.133,38.086,17.090,-11.230
1642357496.792,28.320,36.621,34.668,11.230,-4.883
1642357496.796,29.297,33.203,35.156,23.926,31.250
1642357496.800,26.367,32.227,32.715,25.391,20.020
1642357496.804,26.367,29.785,32.227,8.301,4.883
1642357496.807,21.484,30.762,31.738,8.789,26.855
1642357496.811,16.113,32.227,32.227,24.902,46.875
1642357496.815,14.648,30.762,37.109,20.996,52.246
1642357496.819,23.438,34.180,37.109,18.066,15.625
1642357496.823,23.438,31.738,38.086,17.578,3.418
1642357496.825,16.602,30.273,31.738,18.555,8.789
1642357496.829,18.066,33.691,26.855,21.973,28.320
1642357496.833,27.832,39.062,35.156,20.508,-2.930
1642357496.837,26.855,41.016,32.227,16.602,-41.016
1642357496.841,18.555,35.645,31.250,11.719,26.855
1642357496.845,24.414,34.668,33.691,20.508,79.590
1642357496.849,32.227,38.086,33.691,32.227,29.785
1642357496.852,32.227,41.992,38.086,12.695,6.836
1642357496.856,25.879,42.480,36.133,4.883,16.602
1642357496.860,20.020,41.016,39.551,21.973,33.203
1642357496.864,26.367,39.062,45.898,20.508,47.852
1642357496.868,26.855,35.645,41.992,16.602,-1.953
1642357496.870,18.066,34.180,37.598,21.973,-40.039
1642357496.874,12.207,30.273,40.039,20.020,2.930
1642357496.878,8.301,29.785,40.527,19.531,6.836
1642357496.882,9.277,31.738,37.598,15.137,24.414
1642357496.886,10.254,31.250,39.062,13.184,47.363
1642357496.890,13.672,31.738,40.527,27.344,39.062
1642357496.894,11.719,31.738,40.039,26.855,60.059
1642357496.897,13.184,32.227,36.621,7.812,-0.488
1642357496.901,23.926,34.180,35.645,6.348,-53.711
1642357496.905,12.695,32.227,41.504,17.578,-22.461
1642357496.909,8.789,30.273,41.992,27.832,22.461
1642357496.913,12.695,30.762,37.598,28.809,57.129
1642357496.915,12.695,32.715,36.133,20.508,15.137
1642357496.919,20.020,37.109,40.527,19.043,13.672
1642357496.923,27.344,35.645,37.109,12.207,84.473
1642357496.927,23.926,37.109,31.738,2.441,89.355
1642357496.931,18.555,37.598,36.133,5.371,36.133
1642357496.935,22.949,36.133,40.527,18.555,19.531
1642357496.939,25.391,41.016,36.621,25.391,35.156
1642357496.942,20.020,38.086,33.203,30.762,55.176
1642357496.946,25.391,33.691,35.156,19.531,6.836
1642357496.950,24.902,37.109,36.621,6.836,-32.715
1642357496.954,17.578,35.645,37.598,14.160,13.672
1642357496.958,22.461,33.691,40.039,28.320,82.031
1642357496.960,26.855,38.086,40.039,27.832,67.871
1642357496.964,27.832,36.133,37.598,16.113,12.207
1642357496.968,30.762,32.715,36.133,20.508,3.418
1642357496.972,27.832,36.621,34.668,31.738,23.438
1642357496.976,20.996,36.621,37.109,26.367,50.781
1642357496.980,28.809,33.691,35.645,26.367,9.277
1642357496.984,27.832,32.715,32.715,24.902,-20.508
1642357496.987,23.926,35.645,30.762,28.320,38.574
1642357496.991,26.367,37.109,37.109,31.738,52.734
1642357496.995,25.879,38.086,41.016,21.973,4.883
1642357496.999,26.367,36.621,36.621,17.090,-20.508
1642357497.003,25.391,33.691,34.180,15.137,6.836
1642357497.006,32.227,37.109,35.645,20.020,64.453
1642357497.010,40.039,41.992,35.156,14.648,60.547
1642357497.014,31.738,42.480,31.250,11.230,17.090
1642357497.018,23.926,35.156,31.250,15.137,11.230
1642357497.022,25.879,34.180,32.715,18.066,52.734
1642357497.026,22.949,36.133,32.715,20.508,29.297
1642357497.030,23.926,37.109,34.668,18.066,-32.715
1642357497.033,24.414,39.551,40.527,23.926,-18.066
1642357497.037,18.555,36.621,42.969,35.645,51.270
1642357497.041,20.020,33.691,40.039,33.203,60.059
1642357497.045,25.391,32.715,41.992,23.438,8.789
1642357497.049,27.344,35.156,44.922,20.996,29.785
1642357497.050,28.809,38.574,41.504,27.344,80.078
1642357497.054,22.461,34.180,36.621,30.273,51.270
1642357497.058,23.926,35.156,38.574,23.926,29.297
1642357497.062,23.926,37.109,38.574,19.531,9.766
1642357497.066,18.555,35.645,40.039,22.949,5.371
1642357497.070,19.043,36.621,39.062,22.461,53.223
1642357497.074,20.996,38.574,37.598,18.066,23.438
1642357497.077,28.320,38.574,43.945,16.602,-20.508
1642357497.081,31.738,39.551,45.410,24.414,20.020
1642357497.085,27.344,39.551,43.945,36.133,85.938
1642357497.089,22.949,35.156,41.016,28.320,66.895
1642357497.093,30.273,33.691,40.527,15.137,26.855
1642357497.097,32.715,37.109,38.574,13.672,32.227
1642357497.101,28.320,37.109,33.203,25.391,58.105
1642357497.105,28.320,37.598,31.738,27.832,55.664
1642357497.109,30.762,41.016,30.762,15.625,32.227
1642357497.113,27.344,37.109,32.227,14.160,-4.883
1642357497.117,26.855,36.621,32.227,29.785,-3.418
1642357497.121,20.020,38.574,39.062,33.691,54.688
1642357497.124,12.695,38.086,47.363,31.738,61.035
1642357497.128,23.438,36.133,41.504,23.438,14.160
1642357497.132,26.367,37.109,40.527,23.438,6.836
1642357497.136,24.902,37.598,48.340,37.109,64.453
1642357497.140,24.902,37.598,47.363,30.762,48.340
1642357497.170,20.508,40.039,39.551,18.555,1.953
1642357497.174,14.648,41.504,36.133,20.996,0.977
1642357497.178,7.812,39.551,33.203,24.902,23.926
1642357497.182,13.184,38.574,29.785,16.602,39.551
1642357497.186,16.113,37.598,24.902,18.066,-19.531
1642357497.190,19.043,34.180,20.508,22.461,-65.918
1642357497.194,26.367,36.133,32.715,28.320,12.695
1642357497.197,24.414,35.156,35.156,20.508,57.129
1642357497.201,23.438,33.203,32.227,4.395,16.602
1642357497.205,24.414,34.668,35.645,9.277,24.902
1642357497.209,13.672,35.156,35.156,20.508,22.461
1642357497.213,14.648,33.691,34.180,26.855,60.059
1642357497.200,22.461,32.227,34.668,22.949,7.324
1642357497.204,17.090,34.180,39.062,12.207,-25.391
1642357497.208,8.301,35.645,39.062,11.719,45.898
1642357497.212,5.371,33.691,39.062,28.809,77.148
1642357497.216,9.766,34.180,37.598,20.508,44.434
1642357497.220,12.207,35.645,32.227,5.371,2.441
1642357497.224,10.254,35.156,32.227,9.277,9.766
1642357497.227,19.531,33.691,32.715,22.949,36.133
1642357497.231,23.926,36.133,36.133,30.762,42.480
1642357497.235,15.625,41.016,39.062,20.508,19.531
1642357497.239,14.648,41.992,35.156,18.066,0.488
1642357497.243,17.578,41.016,34.668,36.621,30.762
1642357497.245,22.461,39.551,35.156,37.109,32.715
1642357497.249,28.320,37.598,40.527,16.113,-23.438
1642357497.253,29.785,38.574,45.898,14.160,0.000
1642357497.257,28.809,38.086,40.527,28.809,53.711
1642357497.261,20.996,34.180,40.039,28.320,71.777
1642357497.265,16.602,34.180,42.969,21.973,28.320
1642357497.269,23.926,37.109,41.992,21.973,-30.273
1642357497.272,25.879,39.551,40.039,24.414,-9.766
1642357497.276,20.020,33.691,38.086,16.113,81.543
1642357497.280,16.602,30.273,41.992,5.371,62.012
1642357497.284,25.879,32.715,43.945,12.695,16.113
1642357497.288,27.344,33.691,41.504,21.484,31.738
1642357497.290,26.367,31.738,41.504,33.203,78.125
1642357497.294,30.273,30.762,41.504,32.715,102.539
1642357497.298,26.855,30.762,42.480,18.066,15.625
1642357497.302,22.949,33.691,45.898,19.531,0.000
1642357497.306,20.508,37.109,44.922,30.273,65.430
1642357497.310,19.043,33.691,39.551,36.621,61.523
1642357497.314,20.508,33.691,41.504,27.832,9.766
1642357497.317,22.461,35.156,41.016,10.254,-12.207
1642357497.321,21.973,34.180,41.016,12.207,11.230
1642357497.325,24.902,35.645,43.457,24.902,20.020
1642357497.329,30.273,35.645,42.480,21.973,43.945
1642357497.333,26.367,34.180,43.457,20.508,18.066
1642357497.335,16.113,34.180,43.945,24.414,-14.160
1642357497.339,18.555,35.645,43.945,34.180,49.316
1642357497.343,24.414,34.180,42.480,32.227,36.621
1642357497.347,24.902,33.203,43.945,16.113,19.043
1642357497.351,21.973,37.109,46.875,19.531,22.949
1642357497.355,17.090,39.551,41.992,27.832,45.410
1642357497.359,14.648,36.133,36.621,26.855,29.297
1642357497.362,16.113,34.180,41.016,19.531,-17.578
1642357497.366,19.531,34.668,47.363,10.742,-11.719
1642357497.370,21.973,33.203,47.852,14.648,10.742
1642357497.374,16.113,33.691,43.457,15.625,41.504
1642357497.378,15.137,36.621,38.086,7.324,-6.348
1642357497.382,13.672,34.180,45.410,9.766,-25.879
1642357497.386,13.672,30.273,40.039,19.531,0.977
1642357497.390,16.113,31.738,35.645,20.020,28.320
1642357497.394,12.695,33.691,47.852,20.996,29.297
1642357497.398,17.090,35.645,46.387,17.578,-0.488
1642357497.402,18.066,36.133,37.598,5.371,-9.277
1642357497.406,10.742,32.715,36.133,3.418,31.250
1642357497.409,13.672,31.250,37.598,1.953,35.156
1642357497.413,22.949,36.133,40.527,4.883,28.809
1642357497.417,19.043,37.598,40.527,13.184,51.758
1642357497.421,17.090,34.180,38.574,17.578,59.082
1642357497.425,17.090,32.227,39.062,12.695,80.078
1642357497.425,23.926,32.227,39.062,10.742,74.219
1642357497.429,27.832,31.738,36.621,21.484,45.410
1642357497.433,24.902,34.180,36.621,41.016,42.969
1642357497.437,27.344,35.645,38.086,36.133,49.316
1642357497.441,31.250,34.180,36.621,8.789,48.340
1642357497.445,35.645,36.133,34.180,0.488,22.461
1642357497.449,28.809,36.133,33.203,7.324,-12.695
1642357497.452,25.879,36.133,41.016,22.461,35.645
1642357497.456,29.297,35.156,43.945,18.066,67.871
1642357497.460,26.367,33.203,38.574,11.230,20.996
1642357497.464,24.902,33.691,37.598,29.297,10.254
1642357497.468,15.625,34.668,42.969,40.039,73.730
1642357497.486,15.625,33.691,36.621,15.625,87.402
1642357497.490,22.461,35.156,27.832,-5.371,35.645
1642357497.494,17.090,34.180,29.785,0.000,-1.465
1642357497.498,13.184,36.621,28.320,14.648,29.297
1642357497.502,12.695,35.156,25.391,16.113,43.945
1642357497.506,22.461,32.715,26.367,10.742,10.742
1642357497.510,23.926,37.598,29.785,11.230,-5.859
1642357497.513,17.578,39.062,30.273,21.973,0.977
1642357497.517,20.996,34.668,26.855,35.645,21.484
1642357497.521,27.832,33.691,24.902,30.762,-20.020
1642357497.525,23.438,37.598,32.715,14.160,-39.551
1642357497.529,14.648,38.574,37.109,19.531,4.395
1642357497.530,18.555,39.062,32.715,30.762,45.410
1642357497.534,23.926,42.969,33.203,12.207,54.688
1642357497.538,21.484,38.086,38.574,11.230,15.625
1642357497.542,10.254,33.691,38.574,24.414,9.766
1642357497.546,5.371,38.574,32.715,15.625,42.480
1642357497.550,9.766,38.574,32.715,10.254,34.668
1642357497.554,17.578,39.062,39.062,1.953,-6.348
1642357497.557,20.020,40.039,42.480,8.301,8.789
1642357497.561,16.113,37.109,35.156,26.367,41.504
1642357497.565,17.578,41.992,31.738,21.973,36.133
1642357497.569,21.973,44.922,38.086,19.531,30.762
1642357497.573,25.879,39.551,37.109,21.973,-13.184
1642357497.575,23.926,37.109,35.156,17.090,-9.766
1642357497.579,20.020,38.574,37.598,22.949,52.246
1642357497.583,20.508,36.621,40.527,22.949,51.270
1642357497.587,20.996,35.156,37.109,11.719,10.742
1642357497.591,20.020,38.086,36.133,10.742,-4.883
1642357497.595,19.531,38.574,36.621,21.973,52.246
1642357497.599,20.020,36.133,35.645,22.949,71.777
1642357497.602,19.043,39.062,32.715,9.277,27.344
1642357497.606,14.160,39.551,30.273,6.836,-4.395
1642357497.610,9.277,33.203,38.574,23.438,7.324
1642357497.614,15.137,29.297,44.922,31.250,47.363
1642357497.618,23.926,29.297,39.551,19.043,29.785
1642357497.622,29.297,32.715,38.086,15.625,-12.207
1642357497.626,26.855,33.691,39.551,24.414,18.555
1642357497.630,18.066,34.668,41.016,26.367,48.828
1642357497.634,20.020,37.598,38.574,16.602,16.113
1642357497.638,28.809,37.598,34.668,20.020,15.137
1642357497.642,22.949,34.668,36.621,20.996,25.879
1642357497.646,18.555,37.598,39.551,20.996,55.176
1642357497.649,25.879,38.574,39.062,33.691,70.312
1642357497.653,30.762,35.645,36.621,21.484,-16.602
1642357497.657,26.855,35.645,39.551,8.301,-34.668
1642357497.661,30.762,39.551,36.621,23.926,53.223
1642357497.665,34.180,39.551,35.156,23.926,68.848
1642357497.666,36.621,38.086,37.109,13.672,0.977
1642357497.670,30.762,39.551,37.598,12.695,-17.578
1642357497.674,21.484,39.062,37.109,28.320,35.645
1642357497.678,24.902,39.062,37.109,29.297,49.316
1642357497.682,30.762,39.551,37.109,16.602,-15.137
1642357497.686,26.855,41.992,34.180,17.578,-40.039
1642357497.690,24.414,41.992,34.668,27.832,8.789
1642357497.693,28.320,40.527,32.227,27.832,39.062
1642357497.697,32.227,43.457,33.691,21.484,28.320
1642357497.701,29.785,40.527,45.410,33.691,49.805
1642357497.705,28.320,40.527,41.504,35.156,48.340
1642357497.709,31.250,42.480,36.621,32.715,28.320
1642357497.711,31.738,40.527,39.062,25.391,34.180
1642357497.715,38.086,36.133,38.574,8.301,25.391
1642357497.719,32.227,31.738,35.156,25.879,-6.348
1642357497.723,18.555,31.738,37.109,41.504,57.617
1642357497.727,14.648,31.738,40.039,26.367,75.684
1642357497.731,24.414,32.227,37.598,14.160,19.531
1642357497.735,27.832,34.668,35.645,19.043,-5.859
1642357497.738,19.043,36.133,33.691,24.414,26.367
1642357497.742,18.066,32.715,40.039,30.762,60.547
1642357497.746,11.719,32.227,41.504,27.344,29.297
1642357497.750,8.301,35.156,36.133,16.602,-9.277
1642357497.754,11.230,28.809,38.574,30.762,41.504
1642357497.756,13.184,28.320,38.574,41.016,103.027
1642357497.760,15.137,30.762,33.203,27.832,19.043
1642357497.764,13.184,30.273,34.668,15.625,-16.113
1642357497.768,10.254,31.738,35.645,16.602,37.598
1642357497.772,10.742,31.250,35.156,28.809,62.500
1642357497.776,13.184,30.762,34.668,27.832,41.504
1642357497.780,18.555,32.715,28.809,16.602,-25.879
1642357497.783,11.719,33.203,29.785,12.207,-54.199
1642357497.787,6.836,28.809,38.086,29.785,41.504
1642357497.791,14.648,27.344,37.598,41.016,67.871
1642357497.795,17.578,31.250,33.691,24.902,38.574
1642357497.799,17.578,33.203,35.156,15.625,35.156
1642357497.801,18.555,33.203,39.551,30.273,43.945
1642357497.805,14.648,30.762,38.574,28.320,95.215
1642357497.809,18.066,29.785,34.180,10.742,62.500
1642357497.813,23.438,35.156,35.156,22.949,0.977
1642357497.817,23.926,32.227,36.621,26.855,36.133
1642357497.821,25.879,30.273,28.320,15.625,43.457
1642357497.825,22.949,31.738,29.297,0.977,7.812
1642357497.828,20.508,31.250,41.504,-0.977,13.184
1642357497.832,18.066,32.715,39.551,20.020,14.160
1642357497.836,17.578,35.156,38.086,31.250,50.293
1642357497.840,22.949,35.645,38.086,22.461,34.668
1642357497.844,30.762,37.598,39.551,17.578,0.000
1642357497.875,29.297,38.574,41.016,20.508,10.254
1642357497.879,26.367,37.109,43.945,40.039,65.918
1642357497.883,20.508,36.621,42.969,37.109,81.055
1642357497.887,21.484,34.180,38.086,17.090,8.301
1642357497.891,29.785,33.203,38.574,20.020,-2.930
1642357497.895,24.414,33.203,37.598,20.996,6.836
1642357497.899,28.320,32.715,38.086,21.484,38.086
1642357497.902,36.133,33.203,38.574,23.926,24.414
1642357497.906,29.785,35.645,33.203,17.090,-20.508
1642357497.910,24.414,37.598,33.691,22.949,-1.953
1642357497.914,25.391,35.645,37.598,29.785,46.387
1642357497.918,22.461,32.227,36.133,25.879,40.527
1642357497.905,17.090,30.273,35.156,29.297,9.766
1642357497.909,18.555,29.297,33.691,20.996,10.742
1642357497.913,16.602,29.297,38.086,21.973,82.520
1642357497.917,13.184,32.227,37.598,22.949,88.379
1642357497.921,22.949,35.156,32.715,16.113,-1.953
1642357497.925,25.391,31.738,32.715,25.879,-54.199
1642357497.929,18.066,30.762,36.133,34.668,-6.836
1642357497.932,12.207,35.156,35.645,26.855,50.293
1642357497.936,13.672,35.645,29.297,11.230,44.434
1642357497.940,17.090,31.738,27.832,12.695,15.625
1642357497.944,17.578,31.250,34.180,25.391,27.344
1642357497.948,13.672,31.250,39.062,31.250,58.594
1642357497.950,16.113,30.273,33.203,14.648,39.551
1642357497.954,17.578,31.250,32.715,5.371,-20.508
1642357497.958,10.254,35.645,38.574,13.184,7.812
1642357497.962,15.137,37.598,33.203,14.648,49.316
