timestamps,TP9,AF7,AF8,TP10,Right AUX
1642305313.432,42.969,22.461,33.203,39.062,31.250
1642305313.436,38.086,24.414,35.645,44.922,60.059
1642305313.440,38.086,22.461,36.621,46.387,67.383
1642305313.444,41.016,23.438,31.738,40.527,48.340
1642305313.448,42.969,26.367,32.227,34.668,20.996
1642305313.452,39.551,28.809,35.645,36.621,1.953
1642305313.456,37.598,28.320,38.574,40.527,44.434
1642305313.459,32.227,26.367,37.109,36.621,64.453
1642305313.463,31.738,25.391,30.762,21.973,-20.508
1642305313.467,34.180,27.832,38.086,17.578,-57.129
1642305313.471,30.273,28.320,38.086,26.367,-11.719
1642305313.475,35.156,29.297,32.715,32.715,43.945
1642305313.475,35.156,29.297,32.715,32.715,43.945
1642305313.479,32.715,27.832,33.203,25.391,-4.883
1642305313.483,30.273,26.855,36.621,20.020,-18.555
1642305313.487,32.227,26.855,40.039,28.809,58.105
1642305313.491,28.320,26.855,37.109,28.809,57.129
1642305313.495,30.762,30.762,36.133,20.996,30.273
1642305313.499,37.109,27.832,39.062,22.949,16.113
1642305313.503,35.156,25.879,40.527,25.391,9.766
1642305313.506,34.668,27.832,38.086,27.832,34.180
1642305313.510,31.738,26.367,36.621,30.762,19.043
1642305313.514,34.180,25.879,44.434,26.367,33.203
1642305313.518,34.180,29.297,41.992,25.391,85.938
1642305313.522,30.762,28.809,36.133,30.762,83.496
1642305313.524,29.297,25.391,32.715,30.273,52.734
1642305313.528,27.832,25.879,33.691,16.602,-11.230
1642305313.532,24.414,26.855,34.668,13.672,-10.742
1642305313.536,21.973,25.879,34.180,23.926,22.461
1642305313.540,22.461,25.391,36.621,22.461,41.992
1642305313.544,20.996,25.879,35.645,6.348,49.316
1642305313.548,22.461,25.391,32.715,1.953,8.789
1642305313.551,18.555,23.926,29.297,11.719,10.254
1642305313.555,14.648,24.414,35.645,16.113,34.668
1642305313.559,18.066,25.879,42.480,13.184,37.109
1642305313.563,29.297,25.391,37.109,15.625,60.059
1642305313.567,22.949,21.973,34.180,18.555,28.809
1642305313.569,18.555,22.461,39.062,26.855,28.320
1642305313.573,28.320,25.879,36.621,27.832,58.105
1642305313.577,32.227,31.250,34.180,17.578,17.090
1642305313.581,28.809,27.344,36.621,17.578,2.930
1642305313.585,24.902,23.438,38.574,20.996,37.598
1642305313.589,24.414,24.902,36.621,19.043,60.547
1642305313.593,25.879,22.461,31.250,14.160,45.898
1642305313.596,22.949,20.996,31.738,17.578,3.906
1642305313.600,20.508,22.461,45.410,32.715,5.859
1642305313.604,20.508,23.438,47.852,28.809,43.945
1642305313.608,27.344,23.926,43.945,19.531,36.621
1642305313.612,37.598,25.391,44.922,22.949,5.371
1642305313.614,28.809,27.832,43.457,26.367,31.738
1642305313.618,23.926,27.344,39.551,25.391,71.777
1642305313.622,24.902,24.414,35.156,22.949,43.457
1642305313.626,24.414,24.414,37.109,13.184,23.926
1642305313.630,19.043,24.414,39.551,11.230,-4.883
1642305313.634,16.602,22.461,35.645,25.879,12.695
1642305313.638,19.043,23.438,30.273,24.414,70.312
1642305313.641,25.391,26.367,40.527,20.996,52.246
1642305313.645,26.855,27.832,42.480,25.879,12.207
1642305313.649,15.625,25.391,31.738,25.391,7.324
1642305313.653,15.625,26.367,36.621,29.297,55.664
1642305313.657,21.973,26.367,41.504,24.414,17.578
1642305313.673,23.438,23.926,37.598,13.672,-13.184
1642305313.677,19.043,24.414,36.133,14.648,40.527
1642305313.681,20.508,25.391,36.133,23.926,84.473
1642305313.685,25.879,25.391,36.621,20.508,65.430
1642305313.689,32.227,27.344,33.203,16.602,27.832
1642305313.693,26.367,27.832,25.391,22.461,3.418
1642305313.697,19.531,24.902,29.297,26.367,41.016
1642305313.700,21.484,22.949,39.062,25.879,85.449
1642305313.704,29.785,26.367,37.598,23.438,65.918
1642305313.708,22.949,28.809,34.180,25.391,-7.812
1642305313.712,11.719,24.902,39.062,28.809,43.945
1642305313.716,11.719,23.438,37.109,26.367,88.379
1642305313.733,18.066,25.879,35.645,24.902,37.109
1642305313.737,21.484,26.855,40.039,25.879,45.410
1642305313.741,19.531,27.832,38.574,30.762,54.688
1642305313.745,25.391,26.367,38.574,37.598,54.688
1642305313.749,28.809,28.809,35.156,29.297,31.738
1642305313.753,30.273,27.344,29.785,20.020,8.301
1642305313.757,27.344,26.367,31.250,21.973,-9.277
1642305313.760,31.250,30.273,35.645,30.273,42.480
1642305313.764,39.062,27.344,33.203,29.785,8.789
1642305313.768,38.574,25.391,32.227,22.461,-30.762
1642305313.772,32.715,29.297,40.527,22.949,37.598
1642305313.776,30.762,28.320,41.016,29.785,97.168
1642305313.763,30.273,24.414,32.715,25.879,76.660
1642305313.767,33.691,27.344,32.227,16.113,1.465
1642305313.771,33.203,28.809,35.645,19.043,-16.602
1642305313.775,26.367,26.367,37.598,28.809,33.691
1642305313.779,26.855,29.297,34.668,31.738,28.320
1642305313.783,33.203,28.809,32.227,26.855,-3.418
1642305313.787,30.762,23.438,36.133,27.832,-21.973
1642305313.790,21.973,24.414,38.574,37.598,30.762
1642305313.794,22.949,24.414,34.180,36.621,57.129
1642305313.798,26.367,26.367,32.227,20.020,14.160
1642305313.802,27.344,27.832,31.250,16.602,27.344
1642305313.806,21.484,24.902,30.762,24.902,40.039
1642305313.809,16.113,27.832,25.879,23.926,49.316
1642305313.813,13.184,24.902,30.273,18.555,51.270
1642305313.817,21.973,24.902,38.086,20.020,33.203
1642305313.821,21.973,28.809,32.715,22.949,16.602
1642305313.825,17.090,28.320,32.715,31.250,60.547
1642305313.829,18.066,29.297,33.203,30.762,39.551
1642305313.833,20.508,30.273,35.156,25.391,0.977
1642305313.836,23.926,26.855,37.598,30.273,10.742
1642305313.840,19.043,27.832,34.180,29.297,55.664
1642305313.844,20.020,31.250,40.039,25.879,97.656
1642305313.848,28.809,30.762,42.480,26.855,61.035
1642305313.852,32.227,29.785,35.645,21.973,0.000
1642305313.853,34.668,29.297,37.109,22.949,-15.625
1642305313.857,32.715,28.320,40.039,31.738,43.457
1642305313.861,29.297,24.902,37.598,26.855,46.387
1642305313.865,34.180,26.367,39.551,23.438,17.090
1642305313.869,27.344,26.855,43.457,24.414,10.742
1642305313.873,20.020,23.438,41.016,27.344,57.617
1642305313.877,19.043,22.461,40.527,21.973,70.801
1642305313.880,17.578,20.996,34.668,10.254,0.000
1642305313.884,15.625,23.926,35.645,19.043,10.742
1642305313.888,19.043,28.809,43.457,31.250,47.363
1642305313.892,19.531,28.809,39.062,26.855,27.832
1642305313.896,20.020,27.832,37.598,24.902,4.883
1642305313.898,20.508,25.391,43.457,25.391,-13.672
1642305313.902,18.555,24.902,45.410,26.367,52.734
1642305313.906,18.555,25.879,37.109,21.973,62.988
1642305313.910,17.578,25.391,35.645,10.742,34.668
1642305313.914,21.484,28.320,34.180,9.766,64.453
1642305313.918,21.973,27.832,27.832,20.508,18.555
1642305313.922,19.043,27.344,31.738,24.902,32.715
1642305313.925,22.949,30.273,31.250,18.555,11.719
1642305313.929,28.320,31.250,37.109,13.184,-26.367
1642305313.933,23.926,28.809,38.574,16.113,4.395
1642305313.937,22.461,26.367,37.109,23.926,56.152
1642305313.941,25.879,27.832,35.156,23.926,59.082
1642305313.944,23.926,26.367,32.715,11.230,32.715
1642305313.948,19.531,23.438,36.133,15.625,24.902
1642305313.952,20.020,23.926,31.250,30.762,11.719
1642305313.956,18.066,23.926,30.762,24.902,31.738
1642305313.960,21.484,23.438,37.598,12.207,45.410
1642305313.964,19.531,24.902,35.645,15.625,55.176
1642305313.968,11.719,23.926,30.273,25.391,7.324
1642305313.971,14.160,21.973,37.109,27.344,17.578
1642305313.975,20.020,23.926,45.410,21.973,18.555
1642305313.979,21.484,23.438,41.016,19.043,-4.395
1642305313.983,17.578,22.949,40.527,23.926,44.434
1642305313.987,17.578,26.855,43.457,29.297,92.773
1642305313.988,23.926,28.320,41.992,24.902,33.691
1642305313.992,30.273,25.391,40.527,17.090,-58.105
1642305313.996,24.414,23.926,37.598,23.438,-0.488
1642305314.000,19.043,24.902,39.551,31.738,83.984
1642305314.004,20.996,21.484,42.480,26.855,37.598
1642305314.008,25.879,20.508,38.574,19.043,-29.785
1642305314.012,20.996,25.391,32.715,13.184,-11.230
1642305314.015,21.973,28.809,41.504,25.391,48.340
1642305314.019,32.227,28.320,50.781,33.691,19.531
1642305314.023,32.227,27.832,45.410,23.926,10.254
1642305314.027,28.809,27.832,46.875,22.949,31.250
1642305314.031,23.438,26.367,49.316,26.855,26.855
1642305314.048,22.461,25.879,42.969,25.391,42.969
1642305314.052,17.090,23.438,35.156,11.230,4.883
1642305314.056,14.648,25.879,37.109,8.301,4.395
1642305314.060,13.672,29.297,40.527,22.461,23.926
1642305314.064,15.625,28.320,41.504,32.227,70.312
1642305314.068,23.926,29.297,33.691,28.809,58.105
1642305314.072,33.691,31.250,32.715,28.809,-6.836
1642305314.075,27.344,30.273,41.992,31.250,9.277
1642305314.079,21.973,25.391,44.434,32.715,36.621
1642305314.083,21.973,22.949,39.062,33.691,47.363
1642305314.087,22.461,26.855,40.039,21.973,40.527
1642305314.091,17.578,31.250,41.504,16.602,31.738
1642305314.092,11.719,28.320,40.039,24.902,66.895
1642305314.096,15.625,27.832,39.062,25.391,60.059
1642305314.100,22.949,28.320,38.086,16.113,7.324
1642305314.104,27.832,25.391,37.598,15.625,0.000
1642305314.108,20.508,23.926,34.180,22.949,11.230
1642305314.112,22.949,24.902,33.203,31.738,40.039
1642305314.116,34.180,23.926,34.180,29.785,39.062
1642305314.119,40.039,24.902,35.645,23.926,39.551
1642305314.123,36.133,27.832,31.250,24.902,22.461
1642305314.127,35.645,26.855,23.926,31.738,12.207
1642305314.131,42.480,28.320,31.250,24.902,-1.465
1642305314.135,38.574,29.297,37.109,7.324,-5.859
1642305314.137,31.250,26.367,30.273,12.695,19.531
1642305314.141,31.738,25.879,34.180,34.668,65.918
1642305314.145,27.344,27.344,38.574,34.668,56.641
1642305314.149,22.461,27.344,37.109,20.996,0.488
1642305314.153,17.578,26.855,38.086,21.484,-1.953
1642305314.157,9.766,27.344,37.109,23.438,26.367
1642305314.161,10.254,29.785,38.086,18.555,44.434
1642305314.164,16.113,29.785,41.016,14.160,28.809
1642305314.168,19.531,26.855,34.180,10.742,-6.836
1642305314.172,17.578,26.855,34.668,15.137,-11.230
1642305314.176,21.484,30.762,48.340,26.367,69.336
1642305314.180,27.344,30.273,38.574,23.926,58.105
1642305314.183,29.297,27.344,33.203,19.043,-24.414
1642305314.187,22.949,26.855,38.574,18.066,-8.301
1642305314.191,18.555,26.367,40.527,19.043,59.082
1642305314.195,20.996,23.926,38.086,16.602,79.590
1642305314.199,25.391,23.926,31.738,13.672,9.277
1642305314.203,20.508,27.344,27.832,18.555,-34.668
1642305314.207,18.066,25.391,31.250,25.391,11.230
1642305314.210,23.438,22.461,36.133,23.926,39.062
1642305314.214,26.367,21.973,28.320,22.949,-12.695
1642305314.218,23.438,20.020,33.203,20.508,-14.648
1642305314.222,17.090,20.996,37.109,21.484,40.039
1642305314.226,20.508,22.461,29.785,23.926,56.152
1642305314.227,25.391,22.949,32.715,12.207,30.273
1642305314.231,29.785,27.832,37.598,11.230,49.805
1642305314.235,21.484,28.320,32.715,23.926,53.223
1642305314.239,13.672,23.926,30.762,26.367,56.152
1642305314.243,18.555,21.973,39.062,17.090,33.203
1642305314.247,31.738,23.926,38.574,18.555,-21.484
1642305314.251,30.273,25.391,41.504,28.809,-13.184
1642305314.254,25.391,24.414,41.016,37.109,69.336
1642305314.258,26.367,23.926,38.574,31.250,59.570
1642305314.262,30.273,22.461,47.363,29.297,-2.930
1642305314.266,30.273,23.926,46.387,27.344,23.438
1642305314.270,26.367,24.902,44.922,27.344,95.703
1642305314.273,27.344,25.391,38.574,28.320,74.219
1642305314.277,28.320,26.855,37.598,20.508,15.625
1642305314.281,26.367,24.414,37.109,21.973,6.348
1642305314.285,20.996,22.949,35.156,28.809,17.578
1642305314.289,23.438,25.391,40.039,36.133,80.566
1642305314.293,25.391,25.391,34.668,27.344,40.527
1642305314.297,22.949,25.391,35.156,18.066,8.301
1642305314.300,25.879,26.367,31.250,27.344,67.871
1642305314.304,29.785,27.832,34.668,35.156,114.746
1642305314.308,30.273,28.320,39.062,31.738,75.195
1642305314.312,30.762,27.832,32.715,27.832,29.785
1642305314.316,25.879,27.344,35.156,30.273,74.707
1642305314.318,26.855,25.879,38.574,39.062,77.637
1642305314.322,29.297,26.367,36.133,34.668,29.297
1642305314.326,31.250,27.344,34.180,23.438,11.230
1642305314.330,31.250,30.762,36.133,25.879,4.883
1642305314.334,31.250,32.227,40.527,32.227,7.812
1642305314.338,42.480,31.738,38.086,46.387,27.344
1642305314.342,47.852,34.180,29.785,42.480,24.414
1642305314.345,40.039,33.203,35.645,23.926,22.461
1642305314.349,35.156,32.227,43.457,30.762,24.902
1642305314.353,35.156,30.273,41.992,35.645,56.641
1642305314.357,33.203,25.391,37.598,28.809,42.480
1642305314.361,37.109,27.344,37.598,29.297,-23.926
1642305314.362,34.180,29.297,45.410,34.180,-9.277
1642305314.366,29.297,26.367,47.852,41.504,59.082
1642305314.370,37.598,25.879,39.551,39.062,61.035
1642305314.374,41.504,28.809,39.062,30.273,20.020
1642305314.378,34.668,28.809,42.480,35.156,3.906
1642305314.382,27.344,26.367,40.039,39.551,34.180
1642305314.386,21.484,24.902,42.969,30.762,50.293
1642305314.389,24.414,22.949,50.781,23.438,42.480
1642305314.393,23.926,23.926,47.363,26.855,13.672
1642305314.397,12.207,24.902,40.039,35.645,0.488
1642305314.401,12.695,24.414,38.574,31.738,48.828
1642305314.405,23.926,25.391,37.109,29.297,20.508
1642305314.409,22.461,25.879,36.621,29.785,-17.578
1642305314.413,15.137,24.414,32.715,30.762,-19.531
1642305314.417,19.531,20.508,35.645,38.086,5.371
1642305314.421,23.926,18.066,39.062,23.926,27.344
1642305314.425,25.879,20.020,34.180,13.672,-8.789
1642305314.429,16.113,23.438,27.344,19.531,-26.855
1642305314.433,13.672,27.344,32.227,25.879,32.715
1642305314.436,20.508,25.391,40.527,27.344,36.133
1642305314.440,19.043,21.484,38.574,16.113,7.324
1642305314.444,14.648,22.461,33.691,14.648,-17.578
1642305314.448,13.184,24.414,38.086,28.320,-0.488
1642305314.452,17.090,24.902,42.480,31.250,37.109
1642305314.468,24.902,25.391,35.645,20.996,-9.766
1642305314.472,27.832,28.320,34.668,17.578,-23.438
1642305314.476,23.438,28.320,37.109,26.367,41.016
1642305314.480,19.043,26.367,36.133,25.391,79.102
1642305314.484,20.996,26.855,32.227,16.113,68.848
1642305314.488,18.066,23.926,27.344,4.395,21.973
1642305314.492,15.625,22.949,34.180,7.812,0.488
1642305314.495,20.508,25.391,41.504,21.973,37.109
1642305314.499,18.555,25.391,36.621,18.555,30.273
1642305314.503,24.414,25.391,34.180,12.207,-10.742
1642305314.507,21.484,25.879,39.062,15.137,-5.859
1642305314.511,16.602,22.949,41.016,30.273,68.848
1642305314.514,25.391,22.949,33.691,33.203,61.523
1642305314.518,31.250,26.367,30.762,21.973,0.977
1642305314.522,25.879,27.832,34.180,14.648,24.902
1642305314.526,20.508,27.344,33.203,21.973,41.992
1642305314.530,26.367,26.855,33.691,28.809,50.781
1642305314.534,28.809,26.855,32.715,17.090,10.254
1642305314.538,28.809,24.414,32.227,15.625,0.000
1642305314.541,27.832,23.926,38.086,32.227,50.781
1642305314.545,24.414,24.902,34.668,34.180,70.312
1642305314.549,33.691,25.391,30.273,23.926,23.926
1642305314.553,35.156,26.855,41.504,18.066,-18.555
1642305314.557,24.902,28.809,42.969,22.461,19.043
1642305314.558,25.879,26.855,42.969,31.738,94.727
1642305314.562,27.832,24.902,41.504,20.508,41.992
1642305314.566,24.902,25.391,41.016,6.348,-50.781
1642305314.570,21.973,27.344,41.504,12.695,-27.832
1642305314.574,22.949,27.344,41.016,30.273,27.832
1642305314.578,21.484,25.391,40.527,32.227,68.848
1642305314.582,23.926,25.391,40.527,26.855,48.340
1642305314.585,24.414,25.879,41.016,32.227,36.133
1642305314.589,19.043,26.367,36.133,34.668,43.945
1642305314.593,20.020,25.879,41.992,27.832,21.484
1642305314.597,21.973,29.297,45.898,21.484,15.137
1642305314.601,23.926,28.320,41.504,18.555,38.574
1642305314.604,14.160,24.902,41.504,18.555,40.039
1642305314.608,12.207,27.344,41.992,19.043,41.016
1642305314.612,18.555,25.879,41.504,13.672,14.160
1642305314.616,20.996,24.414,43.457,17.578,28.320
1642305314.620,24.902,28.809,43.457,29.785,65.918
1642305314.624,25.879,30.762,41.504,31.250,80.566
1642305314.628,26.855,26.367,44.922,30.273,71.777
1642305314.631,25.879,19.531,37.598,31.250,21.484
1642305314.635,17.578,22.461,34.180,28.809,-5.371
1642305314.639,14.160,26.855,47.852,33.691,63.965
1642305314.643,15.137,27.344,45.898,31.738,72.266
1642305314.647,17.090,26.367,40.527,20.996,-3.906
1642305314.648,18.066,26.367,39.062,14.160,-10.254
1642305314.652,22.461,30.273,37.109,14.160,1.465
1642305314.656,23.926,30.762,36.621,17.578,34.180
1642305314.660,24.414,30.273,34.668,15.625,63.965
1642305314.664,29.785,29.785,34.180,16.602,49.805
1642305314.668,24.414,26.855,37.598,26.367,29.785
1642305314.672,20.508,27.832,36.621,30.762,60.059
1642305314.675,24.414,29.297,30.273,19.531,43.945
1642305314.679,28.809,30.762,39.551,12.695,18.066
1642305314.683,25.391,27.344,41.016,22.949,5.371
1642305314.687,21.484,24.414,30.762,33.203,-6.348
1642305314.691,25.879,31.250,29.297,25.391,2.930
1642305314.694,32.227,32.227,35.645,12.695,17.090
1642305314.698,26.855,28.809,34.180,14.648,-17.090
1642305314.702,28.809,31.738,27.344,25.391,-7.812
1642305314.706,35.156,30.273,34.668,32.227,18.066
1642305314.710,36.133,22.461,40.527,31.250,26.855
1642305314.714,35.156,22.461,33.691,29.297,29.785
1642305314.718,28.809,27.344,31.738,31.738,45.898
1642305314.721,30.273,28.320,37.109,32.715,20.020
1642305314.725,30.762,31.250,45.898,28.809,21.973
1642305314.729,34.668,31.250,41.016,26.855,61.523
1642305314.733,33.203,30.762,38.086,33.691,79.102
1642305314.737,23.926,32.227,37.109,36.133,92.773
1642305314.738,25.391,30.762,34.668,32.227,33.203
1642305314.742,29.785,25.879,31.250,21.973,-19.043
1642305314.746,28.320,24.902,32.715,21.484,-3.418
1642305314.750,26.855,27.832,40.527,34.668,25.391
1642305314.754,27.344,30.273,38.086,30.273,41.992
1642305314.758,30.273,30.273,33.203,27.832,38.574
1642305314.762,22.949,28.809,27.344,23.926,-4.395
1642305314.765,16.602,27.832,33.691,27.344,-6.348
1642305314.769,21.484,25.879,45.410,37.109,45.898
1642305314.773,24.902,26.367,40.527,23.438,36.133
1642305314.777,22.949,29.297,39.062,16.113,-0.488
1642305314.781,18.555,24.902,40.527,21.484,0.000
1642305314.798,20.508,22.461,40.039,27.344,38.086
1642305314.802,24.902,27.344,34.668,22.461,60.059
1642305314.806,29.785,25.879,34.180,20.508,34.668
1642305314.810,27.832,23.438,40.527,32.227,22.461
1642305314.814,22.461,25.879,39.551,35.645,49.805
1642305314.818,22.949,27.344,33.203,31.250,54.199
1642305314.822,23.438,25.879,40.527,27.344,18.555
1642305314.825,18.066,26.367,42.480,20.020,11.719
1642305314.829,20.508,26.367,37.598,29.297,13.184
1642305314.833,22.949,25.879,34.668,21.973,18.066
1642305314.837,24.414,26.367,36.621,11.719,9.277
1642305314.841,26.855,27.832,44.922,22.949,45.898
1642305314.844,23.438,29.785,40.527,29.785,66.406
1642305314.848,20.508,28.809,37.598,29.297,83.984
1642305314.852,27.832,30.273,37.109,23.926,57.129
1642305314.856,34.668,31.250,41.016,21.973,-20.508
1642305314.860,24.902,27.344,40.039,24.414,37.598
1642305314.864,21.973,23.438,34.668,33.203,51.758
1642305314.868,22.461,25.879,35.645,23.438,-9.277
1642305314.871,21.973,28.809,38.086,11.230,-12.207
1642305314.875,25.879,27.344,33.691,22.461,-15.137
1642305314.879,23.926,27.344,33.691,33.691,30.273
1642305314.883,20.020,29.297,39.551,22.949,25.391
1642305314.887,24.414,28.320,41.016,11.719,3.906
1642305314.888,24.414,25.879,33.691,20.020,26.855
1642305314.892,24.902,24.902,37.109,22.949,41.992
1642305314.896,27.832,26.855,44.922,17.090,84.473
1642305314.900,27.832,27.832,33.203,15.137,31.738
1642305314.904,27.344,28.320,28.320,19.531,-8.301
1642305314.908,22.949,27.344,35.156,22.461,27.832
1642305314.912,23.438,27.832,37.109,26.367,45.410
1642305314.915,28.809,27.832,36.133,26.855,55.664
1642305314.919,31.738,27.344,29.297,22.949,21.484
1642305314.923,30.762,28.809,29.297,26.367,5.859
1642305314.927,31.250,26.855,40.039,34.668,57.129
1642305314.931,33.691,26.855,41.504,37.109,62.500
1642305314.934,39.062,28.809,42.480,29.785,7.812
1642305314.938,36.133,29.785,38.574,32.715,38.086
1642305314.942,30.762,27.344,39.062,40.039,97.656
1642305314.946,31.738,29.297,40.039,31.250,62.500
1642305314.950,35.645,32.715,34.180,21.484,1.953
1642305314.954,23.438,25.391,37.598,19.531,29.785
1642305314.958,12.695,23.926,41.016,25.879,82.520
1642305314.961,16.113,26.367,40.527,31.738,63.965
1642305314.965,19.043,23.438,40.039,23.926,30.273
1642305314.969,20.508,21.973,46.387,19.043,-22.949
1642305314.973,20.020,26.367,48.340,29.785,25.391
1642305314.977,20.508,29.297,42.969,29.785,77.148
1642305314.979,22.461,27.832,44.434,19.531,25.391
1642305314.983,25.391,25.879,48.828,24.414,2.930
1642305314.987,21.484,26.855,47.852,32.227,43.457
1642305314.991,17.090,28.320,44.922,31.250,78.125
1642305314.995,17.578,26.367,45.410,27.344,60.059
1642305314.999,17.578,24.902,46.387,22.461,27.344
1642305315.003,18.555,26.855,44.434,23.926,-7.324
1642305315.006,22.461,27.832,41.016,31.250,-6.348
1642305315.010,20.996,26.367,39.551,25.391,14.160
1642305315.014,24.902,27.344,48.340,20.508,-39.551
1642305315.018,23.926,27.344,47.363,26.367,-38.574
1642305315.022,16.602,26.367,44.434,33.691,53.711
1642305315.023,22.461,25.391,43.945,37.598,102.539
1642305315.027,25.879,22.461,38.574,26.855,40.039
1642305315.031,24.902,23.926,32.227,15.137,-20.996
1642305315.035,22.461,24.414,33.691,19.531,20.996
1642305315.039,18.066,22.461,39.551,24.414,62.012
1642305315.043,22.949,25.391,34.668,22.461,25.879
1642305315.047,25.879,22.461,34.180,20.020,9.766
1642305315.050,19.531,18.066,31.250,18.555,4.395
1642305315.054,21.484,22.461,34.668,29.297,20.020
1642305315.058,27.344,24.414,40.527,31.738,45.410
1642305315.062,32.715,25.391,35.156,25.879,33.203
1642305315.066,30.762,25.879,33.203,27.832,39.062
1642305315.068,24.414,23.438,35.645,31.738,86.914
1642305315.072,22.949,22.461,34.668,27.344,92.285
1642305315.076,23.438,27.832,30.762,15.137,22.949
1642305315.080,17.578,26.367,32.227,10.254,-16.113
1642305315.084,9.766,21.973,38.574,20.020,15.137
1642305315.088,13.184,26.367,35.156,27.832,48.828
1642305315.092,19.043,28.809,26.367,22.949,13.184
1642305315.095,24.902,27.832,31.250,20.996,-27.832
1642305315.099,21.973,29.297,42.480,22.949,46.875
1642305315.103,16.602,31.250,38.574,24.414,89.355
1642305315.107,20.508,33.203,34.180,20.020,45.898
1642305315.111,29.785,31.250,35.645,19.043,-14.160
1642305315.113,23.438,27.344,37.109,21.484,-31.738
1642305315.117,18.555,24.414,39.062,25.879,35.156
1642305315.121,22.461,23.926,38.086,23.438,21.484
1642305315.125,27.832,24.902,41.992,16.602,-25.879
1642305315.129,23.438,26.855,41.992,18.066,-31.738
1642305315.133,21.484,26.367,35.645,24.902,-4.395
1642305315.137,20.996,27.344,34.180,27.344,14.160
1642305315.140,20.996,26.855,46.387,21.484,30.273
1642305315.144,29.297,22.949,53.223,21.973,24.414
1642305315.148,29.297,24.902,45.410,28.320,0.488
1642305315.152,29.297,25.391,39.551,26.367,41.504
1642305315.156,24.902,21.973,37.598,11.719,12.695
1642305315.187,25.391,22.461,42.480,9.766,28.809
1642305315.191,31.250,28.809,41.504,26.855,47.363
1642305315.195,27.832,26.855,40.039,35.645,50.781
1642305315.199,23.438,25.391,43.457,25.879,36.621
1642305315.203,14.160,25.879,38.086,12.207,53.711
1642305315.207,3.418,22.949,30.762,10.254,73.242
1642305315.211,14.160,29.785,38.086,21.484,46.875
1642305315.214,15.137,32.715,43.945,19.531,37.598
1642305315.218,17.090,30.762,38.574,18.555,-1.953
1642305315.222,16.113,31.738,39.551,25.391,-30.762
1642305315.226,5.371,28.809,42.480,22.461,26.367
1642305315.230,-3.418,24.902,40.039,1.953,82.520
1642305315.217,-2.441,28.320,38.574,-11.230,58.105
1642305315.221,14.648,31.738,45.898,8.301,21.973
1642305315.225,19.531,30.273,51.758,24.902,25.391
1642305315.229,10.742,31.250,46.875,16.602,64.941
1642305315.233,6.836,29.297,40.527,13.672,32.715
1642305315.237,6.836,28.809,38.086,12.695,16.113
1642305315.241,-6.348,30.273,46.387,6.836,56.152
1642305315.244,-16.602,30.762,51.270,1.953,89.355
1642305315.248,-10.254,31.738,48.340,-3.418,98.633
1642305315.252,0.000,31.738,47.852,-0.488,42.480
1642305315.256,-3.906,34.180,52.246,6.836,68.848
1642305315.260,-7.324,33.203,48.340,10.742,90.332
1642305315.262,-4.883,28.320,40.039,7.324,59.570
1642305315.266,-2.441,27.832,39.551,-2.930,73.730
1642305315.270,-3.418,30.273,43.945,-1.953,0.000
1642305315.274,-2.930,33.203,43.457,18.555,7.324
1642305315.278,0.000,32.715,38.086,16.113,28.809
1642305315.282,4.883,28.809,33.691,-2.930,7.812
1642305315.286,9.766,28.809,38.086,0.000,4.395
1642305315.289,9.277,31.250,40.039,8.301,18.066
1642305315.293,13.184,31.250,31.250,13.672,50.781
1642305315.297,21.973,33.203,30.273,15.137,-18.555
1642305315.301,28.320,31.250,44.434,18.066,-45.898
1642305315.305,28.809,29.785,38.086,30.762,32.715
1642305315.308,34.668,28.809,31.250,43.457,65.430
1642305315.312,41.504,26.367,35.156,37.598,41.016
1642305315.316,47.363,29.785,30.273,32.715,43.945
1642305315.320,46.875,29.785,30.762,41.992,61.523
1642305315.324,45.898,25.879,34.668,54.688,82.031
1642305315.328,48.340,26.367,32.715,55.176,55.176
1642305315.332,53.223,26.367,33.691,46.875,-10.742
1642305315.335,52.246,26.367,41.016,42.480,20.996
1642305315.339,50.293,27.344,35.645,46.387,23.926
1642305315.343,49.316,25.879,41.992,44.922,46.875
1642305315.347,46.875,23.438,46.875,35.156,54.199
1642305315.351,50.781,27.344,32.227,33.203,-25.391
1642305315.353,49.316,28.320,31.738,42.969,-13.672
1642305315.357,51.270,25.391,43.945,46.387,65.430
1642305315.361,54.688,27.344,36.133,38.574,64.941
1642305315.365,52.246,27.832,29.297,32.227,6.348
1642305315.369,48.340,23.926,32.715,35.645,11.719
1642305315.373,44.922,25.391,32.227,45.898,37.598
1642305315.377,42.480,25.879,32.227,45.898,41.992
1642305315.380,51.270,23.926,29.785,40.527,37.109
1642305315.384,52.246,24.902,30.273,38.574,18.066
1642305315.388,48.828,25.391,37.109,47.363,41.016
1642305315.392,45.410,26.855,34.180,47.363,43.945
1642305315.396,48.340,24.414,37.109,38.574,0.977
1642305315.399,49.805,21.973,40.039,40.039,18.555
1642305315.403,44.434,24.414,41.016,52.246,22.949
1642305315.407,43.457,23.926,41.504,50.781,67.871
1642305315.411,42.480,24.414,37.109,37.598,72.266
1642305315.415,46.387,26.855,39.062,33.691,47.852
1642305315.419,49.316,23.926,38.574,46.387,59.082
1642305315.423,43.945,23.926,35.645,53.223,34.180
1642305315.426,38.086,24.414,30.273,38.086,14.648
1642305315.430,40.527,22.949,37.598,29.297,13.672
1642305315.434,36.621,23.438,39.062,28.320,13.672
1642305315.438,33.691,25.879,31.250,31.738,68.359
1642305315.442,40.039,25.391,31.738,41.016,24.902
1642305315.443,42.480,27.344,37.109,42.480,-21.484
1642305315.447,41.016,29.297,35.645,42.480,33.691
1642305315.451,43.945,25.879,31.250,45.898,27.832
1642305315.455,38.086,23.926,31.250,36.621,30.273
1642305315.459,35.645,25.391,27.832,23.926,55.176
1642305315.463,35.156,24.414,31.250,26.367,-4.395
1642305315.467,26.855,24.414,32.715,35.156,-61.035
1642305315.470,26.855,25.391,32.227,36.621,-11.230
1642305315.474,31.738,21.973,41.504,34.668,59.570
1642305315.478,38.086,21.484,40.527,31.738,23.926
1642305315.482,36.133,22.461,36.133,33.691,-14.648
1642305315.486,30.273,20.020,36.621,37.598,5.859
1642305315.488,32.715,18.555,36.621,33.203,-11.719
1642305315.492,41.992,20.508,38.574,26.855,63.965
1642305315.496,33.203,20.508,36.621,29.297,72.754
1642305315.500,21.973,21.484,40.039,34.668,27.832
1642305315.504,21.973,23.438,40.527,30.762,19.043
1642305315.508,26.367,22.949,37.598,25.879,32.715
1642305315.512,27.344,25.391,32.227,30.273,29.785
1642305315.515,21.973,24.902,38.574,37.109,8.301
1642305315.519,22.949,24.414,46.875,34.668,42.969
1642305315.523,27.344,26.855,40.527,23.926,52.734
1642305315.527,29.297,29.297,36.621,16.602,9.766
1642305315.531,24.902,28.809,41.992,21.973,26.855
1642305315.548,24.902,25.879,41.016,30.273,75.195
1642305315.552,26.367,23.926,36.133,24.902,-13.672
1642305315.556,27.832,25.879,42.480,23.438,-65.918
1642305315.560,26.367,28.809,50.293,32.715,6.836
1642305315.564,21.973,27.344,47.852,34.180,88.379
1642305315.568,23.438,26.367,34.180,24.902,68.359
1642305315.572,29.297,26.855,33.691,20.996,31.738
1642305315.575,24.414,24.902,41.992,23.438,20.996
1642305315.579,19.043,22.461,43.457,28.809,61.035
1642305315.583,19.043,22.461,36.133,25.879,89.844
1642305315.587,21.973,21.973,35.645,18.066,21.973
1642305315.591,26.855,21.973,41.504,22.461,-34.180
1642305315.607,24.902,24.414,37.598,30.762,14.648
1642305315.611,22.949,26.855,35.645,32.227,62.500
1642305315.615,26.367,29.785,37.109,23.926,53.711
1642305315.619,23.926,29.297,37.598,17.578,-3.418
1642305315.623,14.648,26.855,38.574,18.555,13.672
1642305315.627,12.207,25.391,36.133,26.367,94.727
1642305315.631,19.043,20.996,36.133,25.391,91.797
1642305315.634,20.996,22.949,39.062,11.230,60.547
1642305315.638,13.672,28.320,34.668,16.602,1.953
1642305315.642,16.113,26.367,31.250,22.949,-10.254
1642305315.646,18.066,25.391,40.039,17.090,16.602
1642305315.650,21.973,25.879,45.410,11.719,17.578
1642305315.637,19.043,27.344,37.598,11.719,8.789
1642305315.641,16.113,22.461,37.598,18.066,0.000
1642305315.645,21.484,24.414,41.016,20.508,45.410
1642305315.649,23.926,27.832,38.086,14.160,41.016
1642305315.653,22.461,24.902,36.621,14.648,-5.859
1642305315.657,21.973,26.367,39.551,23.926,20.020
1642305315.661,23.438,28.320,44.434,24.414,53.223
1642305315.664,27.832,27.832,45.898,20.996,0.977
1642305315.668,27.344,26.855,44.922,22.949,-23.438
1642305315.672,20.508,24.902,44.434,30.273,28.320
1642305315.676,21.973,24.414,46.875,37.598,23.438
1642305315.680,27.344,25.879,49.316,33.203,5.859
1642305315.682,28.320,26.855,44.922,22.949,34.668
1642305315.686,23.926,27.832,41.992,19.531,50.781
1642305315.690,21.973,27.832,49.316,31.250,67.871
1642305315.694,24.902,28.809,43.457,30.762,114.746
1642305315.698,26.855,28.320,38.574,22.949,36.133
1642305315.702,22.461,29.785,42.480,18.555,-14.160
1642305315.706,20.996,30.273,42.480,27.344,32.227
1642305315.709,20.996,27.344,41.504,34.180,41.992
1642305315.713,23.926,27.344,42.480,26.855,42.480
1642305315.717,30.273,26.367,45.898,32.227,10.254
1642305315.721,29.785,26.855,47.363,35.645,8.301
1642305315.725,27.344,29.297,42.480,28.320,48.340
1642305315.727,32.227,27.344,37.598,21.484,17.090
1642305315.731,31.250,27.344,41.992,18.066,-7.324
1642305315.735,21.973,27.344,40.527,20.508,-20.020
1642305315.739,22.949,26.855,41.504,26.855,18.555
1642305315.743,27.832,29.785,40.039,23.926,31.250
1642305315.747,30.762,30.273,36.621,15.625,-11.230
1642305315.751,23.926,26.855,38.574,17.578,-31.738
1642305315.754,17.578,25.391,35.156,22.949,13.184
1642305315.758,16.113,23.926,36.133,9.766,49.316
1642305315.762,20.508,24.414,44.922,8.789,21.973
1642305315.766,25.879,25.879,39.062,19.531,21.973
1642305315.770,20.996,26.855,36.621,24.414,68.359
1642305315.773,17.578,25.879,39.551,30.273,64.941
1642305315.777,19.531,20.508,37.598,26.367,38.086
1642305315.781,17.578,19.531,37.598,18.066,47.363
1642305315.785,15.625,21.973,40.039,21.973,81.055
1642305315.789,10.742,20.996,41.992,23.926,64.453
1642305315.793,11.719,20.996,36.133,14.648,34.180
1642305315.797,22.949,24.902,33.691,9.766,7.324
1642305315.800,17.090,26.367,34.180,10.742,14.160
1642305315.804,16.602,26.855,37.598,18.066,55.664
1642305315.808,24.414,27.344,36.621,21.973,37.109
1642305315.812,23.926,23.438,30.762,13.672,-36.621
1642305315.816,17.578,23.438,32.715,7.812,-46.387
1642305315.817,16.113,25.879,44.922,15.137,59.570
1642305315.821,22.461,26.855,45.410,19.043,86.914
1642305315.825,28.320,27.344,39.062,10.254,34.180
1642305315.829,28.320,26.367,40.039,11.230,7.324
1642305315.833,23.438,27.344,41.504,20.996,-25.391
1642305315.837,20.508,28.320,40.039,21.973,37.109
1642305315.841,24.902,28.809,35.156,18.066,59.082
1642305315.844,27.344,29.297,35.156,18.555,2.441
1642305315.848,23.438,27.832,42.969,29.297,13.184
1642305315.852,26.367,27.832,41.992,33.691,57.617
1642305315.856,22.949,27.832,40.039,26.367,101.562
1642305315.860,23.926,27.832,38.574,21.973,62.988
1642305315.864,22.949,26.855,35.156,26.367,3.418
1642305315.868,20.020,26.367,37.109,37.109,59.570
1642305315.872,24.414,26.855,41.992,38.086,53.223
1642305315.876,28.320,26.367,45.410,27.832,15.137
1642305315.880,24.414,26.855,44.922,23.438,24.902
1642305315.884,21.973,26.367,36.621,26.367,62.012
1642305315.888,21.484,23.926,26.855,24.414,37.598
1642305315.891,24.414,24.902,32.227,18.555,-46.875
1642305315.895,27.832,27.344,38.086,18.555,-20.996
1642305315.899,21.973,24.902,33.691,26.367,10.254
1642305315.903,13.672,21.973,36.133,25.879,19.043
1642305315.907,16.602,24.414,37.598,18.555,43.457
1642305315.924,25.879,29.297,32.715,17.090,17.578
1642305315.928,23.438,32.227,32.227,20.508,32.715
1642305315.932,21.973,27.832,35.645,23.926,53.711
1642305315.936,21.973,26.367,35.645,17.090,56.641
1642305315.940,24.902,27.344,34.180,6.836,27.832
1642305315.944,24.414,22.949,27.832,13.184,13.672
1642305315.948,18.066,24.414,29.785,20.020,74.707
1642305315.951,17.578,28.809,38.086,20.996,59.570
1642305315.955,20.508,25.879,36.133,18.066,-14.160
1642305315.959,13.672,22.461,33.691,18.555,-38.574
1642305315.963,16.602,27.832,34.180,31.250,-6.836
1642305315.967,25.879,29.785,40.039,32.715,32.227
1642305315.969,24.902,24.902,43.457,25.879,64.453
1642305315.973,26.855,24.902,41.016,29.297,73.242
1642305315.977,26.855,23.926,40.527,39.551,60.547
1642305315.981,26.855,22.461,41.016,40.527,63.965
1642305315.985,32.715,27.344,34.668,28.809,18.066
1642305315.989,39.551,29.785,32.715,23.926,21.484
1642305315.993,37.109,30.273,39.062,31.738,38.574
1642305315.996,30.273,31.738,46.387,43.945,49.316
1642305316.000,23.438,30.273,40.527,36.621,42.480
1642305316.004,22.949,28.809,24.414,17.578,-39.551
1642305316.008,21.484,25.879,29.297,12.207,-69.824
1642305316.012,17.090,22.949,39.551,22.461,-2.441
1642305316.014,20.508,20.996,32.227,26.367,20.508
1642305316.018,21.484,25.391,31.738,11.719,2.930
1642305316.022,20.996,28.809,37.598,9.766,28.809
1642305316.026,20.996,26.855,38.086,19.043,4.883
1642305316.030,21.973,25.391,39.062,20.996,40.527
1642305316.034,27.832,24.414,36.621,17.090,55.176
1642305316.038,29.785,24.414,36.621,15.625,-30.273
1642305316.041,22.461,25.391,43.457,25.879,-5.371
1642305316.045,20.508,23.926,41.992,25.391,93.750
1642305316.049,24.902,22.461,38.574,19.043,116.211
1642305316.053,28.320,27.832,44.434,19.043,21.973
1642305316.057,24.902,32.715,37.598,20.020,-8.301
1642305316.057,23.438,31.250,35.156,25.391,51.270
1642305316.061,21.973,28.320,36.621,25.391,71.777
1642305316.065,27.832,29.297,33.203,18.066,26.855
1642305316.069,26.367,28.809,31.250,16.602,9.277
1642305316.073,16.602,25.879,32.715,24.902,36.621
1642305316.077,19.531,25.391,38.086,28.809,70.801
1642305316.081,24.902,27.344,40.039,23.926,74.707
1642305316.084,18.066,27.832,34.668,19.043,35.156
1642305316.088,11.719,25.879,29.297,19.043,-2.930
1642305316.092,16.113,26.367,36.621,23.438,29.785
1642305316.096,20.020,31.250,43.457,24.414,41.016
1642305316.100,20.996,31.250,38.574,17.090,0.977
1642305316.104,20.020,26.855,34.668,20.996,-4.883
1642305316.108,16.602,24.414,37.598,25.879,17.090
1642305316.112,12.207,23.926,37.109,15.625,13.184
1642305316.116,17.090,24.414,32.227,9.766,17.090
1642305316.120,15.625,23.438,33.691,15.625,17.578
1642305316.124,14.648,28.809,35.156,23.438,40.039
1642305316.128,18.066,31.250,34.668,17.090,92.773
1642305316.131,24.902,26.855,30.762,10.254,41.504
1642305316.135,22.949,29.297,32.227,10.742,23.438
1642305316.139,15.625,29.297,42.969,15.137,88.867
1642305316.143,19.531,26.855,37.109,22.949,68.848
1642305316.147,23.438,27.832,36.133,17.090,30.762
1642305316.147,24.902,27.832,38.086,13.672,-6.348
1642305316.151,22.949,29.297,39.062,25.879,-11.719
1642305316.155,20.020,29.785,39.551,29.785,54.688
1642305316.159,22.461,30.762,36.133,26.855,86.426
1642305316.163,27.344,29.785,37.109,22.949,29.297
1642305316.167,26.367,29.785,37.109,24.414,18.555
1642305316.171,22.461,30.762,38.574,30.273,49.805
1642305316.174,24.902,27.344,35.156,29.297,22.949
1642305316.178,33.691,27.344,42.480,26.367,-20.996
1642305316.182,28.809,27.344,47.363,29.785,4.395
1642305316.186,22.949,27.832,41.992,37.598,48.828
1642305316.190,25.879,27.832,43.457,34.668,63.965
1642305316.193,29.785,24.902,40.527,25.391,34.180
1642305316.197,31.250,22.461,40.527,28.320,46.875
1642305316.201,28.809,23.926,38.574,36.621,66.406
1642305316.205,33.203,28.809,37.109,30.273,56.641
1642305316.209,38.574,27.344,36.133,16.113,74.219
1642305316.213,39.062,24.902,31.738,15.137,56.152
1642305316.217,30.762,21.973,30.273,18.066,35.156
1642305316.220,28.320,22.461,36.133,28.320,67.383
1642305316.224,30.273,26.367,41.016,30.762,37.598
1642305316.228,29.297,26.367,38.574,28.320,-5.371
1642305316.232,21.973,28.320,38.086,31.738,21.484
1642305316.236,21.484,28.320,37.598,35.156,59.570
1642305316.238,22.949,26.367,33.203,29.785,10.254
1642305316.242,20.020,23.438,33.203,20.508,-16.602
1642305316.246,18.555,22.461,36.133,27.832,0.488
1642305316.250,20.996,24.902,38.086,35.645,29.785
1642305316.254,26.367,23.438,35.645,27.344,23.926
1642305316.258,25.879,23.438,35.156,22.949,-8.301
1642305316.262,24.414,25.391,34.668,20.020,25.879
1642305316.265,25.879,24.902,38.574,22.461,42.969
1642305316.269,26.855,24.414,40.527,28.320,41.016
1642305316.273,30.273,25.391,29.785,19.531,51.270
1642305316.277,36.621,27.344,28.809,19.531,17.578
1642305316.281,33.203,29.785,38.574,29.297,-9.766
1642305316.299,27.344,30.273,39.551,34.180,67.871
1642305316.303,30.762,29.785,27.832,26.367,35.645
1642305316.307,33.203,28.809,26.367,19.043,-15.137
1642305316.311,25.391,29.297,34.668,26.367,25.391
1642305316.315,24.902,30.273,37.109,32.715,62.988
1642305316.319,33.203,29.297,29.785,26.367,42.969
1642305316.323,38.086,32.227,32.715,17.090,21.484
1642305316.326,33.203,34.180,39.062,19.531,-2.930
1642305316.330,29.297,32.227,38.086,27.344,8.789
1642305316.334,29.785,34.180,38.086,23.438,80.078
1642305316.338,35.156,34.180,40.527,18.066,92.285
1642305316.342,37.598,30.273,43.945,21.973,39.551
1642305316.344,33.203,30.273,38.086,32.227,23.438
1642305316.348,29.785,29.297,32.715,34.180,43.457
1642305316.352,28.809,25.879,36.621,28.809,6.836
1642305316.356,28.320,26.367,41.992,30.273,-9.766
1642305316.360,25.391,27.832,38.086,31.738,-20.020
1642305316.364,25.879,29.297,36.133,29.785,-1.953
1642305316.368,24.902,29.297,37.109,20.996,7.812
1642305316.371,26.855,26.367,42.480,18.555,2.930
1642305316.375,23.926,25.879,41.016,25.879,40.039
1642305316.379,22.949,26.855,33.691,32.715,60.547
1642305316.383,28.809,28.809,36.133,32.227,22.461
1642305316.387,33.691,29.785,39.551,31.250,55.664
1642305316.388,31.738,27.832,36.621,33.691,57.129
1642305316.392,22.461,24.902,38.574,34.180,35.645
1642305316.396,23.438,24.902,39.551,35.645,38.086
1642305316.400,28.809,26.855,38.086,30.273,35.156
1642305316.404,26.855,27.832,36.621,28.809,23.438
1642305316.408,18.066,25.391,36.621,29.297,17.090
1642305316.412,15.625,22.949,39.551,25.391,26.367
1642305316.415,18.555,22.949,40.527,18.555,30.273
1642305316.419,21.973,25.391,33.203,12.695,23.926
1642305316.423,17.090,26.855,28.809,14.648,-5.859
1642305316.427,17.090,22.949,41.016,24.414,22.461
1642305316.431,23.438,19.043,41.504,25.391,56.641
1642305316.433,24.414,20.996,36.621,20.996,17.578
1642305316.437,22.949,23.438,38.086,27.832,-17.090
1642305316.441,20.508,21.973,40.039,32.227,31.250
1642305316.445,17.090,22.461,38.086,21.973,38.086
1642305316.449,21.973,25.391,37.598,15.137,28.320
1642305316.453,24.414,23.926,34.668,17.090,-17.090
1642305316.457,17.578,22.949,36.621,17.578,1.465
1642305316.460,20.020,24.414,41.504,16.602,66.406
1642305316.464,28.320,24.902,34.180,14.160,14.160
1642305316.468,30.273,21.973,39.551,18.555,23.438
1642305316.472,28.320,23.438,43.457,28.809,50.781
1642305316.476,26.367,25.879,36.133,30.762,9.766
1642305316.478,27.832,22.949,37.109,20.508,-6.836
1642305316.482,41.016,24.414,34.668,22.461,19.043
1642305316.486,38.086,27.344,35.156,32.715,20.020
1642305316.490,23.438,30.273,39.551,25.879,43.945
1642305316.494,22.949,32.715,38.574,15.137,98.633
1642305316.498,25.879,28.809,34.668,11.719,25.879
1642305316.502,20.020,31.250,37.109,18.555,0.977
1642305316.505,15.625,32.715,39.062,25.879,60.547
1642305316.509,16.113,27.832,36.621,19.043,45.410
1642305316.513,26.367,24.902,43.945,16.113,0.977
1642305316.517,28.320,26.367,45.898,19.531,44.922
1642305316.521,20.020,27.344,40.039,25.879,113.281
1642305316.523,22.461,25.879,39.062,27.832,65.430
1642305316.527,29.297,27.832,37.598,20.508,35.645
1642305316.531,28.320,27.344,33.691,17.578,72.266
1642305316.535,20.020,24.902,36.133,19.531,68.359
1642305316.539,21.484,26.855,38.574,23.926,65.918
1642305316.543,28.320,28.320,34.668,17.090,57.129
1642305316.547,30.273,24.902,35.156,14.160,45.898
1642305316.550,23.438,24.902,33.691,20.020,10.742
1642305316.554,14.648,28.320,39.551,20.508,24.902
1642305316.558,14.160,27.344,42.969,21.484,73.730
1642305316.562,22.949,27.832,37.598,18.555,37.598
1642305316.566,22.949,31.250,36.133,18.066,-28.320
1642305316.568,18.066,29.297,43.457,24.414,-20.508
1642305316.572,23.926,25.879,49.316,24.902,24.902
1642305316.576,26.367,25.879,39.551,15.625,-2.930
1642305316.580,25.391,26.367,40.527,14.648,-27.832
1642305316.584,23.926,25.879,47.852,28.809,11.719
1642305316.588,20.996,24.414,46.387,30.273,11.230
1642305316.592,22.461,22.461,41.016,23.926,17.578
1642305316.595,23.438,20.996,43.457,19.043,32.227
1642305316.599,20.020,23.926,50.293,19.043,39.062
1642305316.603,19.531,24.902,48.340,27.344,54.688
1642305316.607,24.414,26.367,44.922,26.367,7.324
1642305316.611,30.762,27.344,42.480,18.066,14.648
1642305316.613,24.414,23.926,40.527,23.438,48.340
1642305316.617,20.996,25.879,40.039,33.691,37.109
1642305316.621,24.414,28.809,38.574,27.344,43.945
1642305316.625,23.438,26.367,40.039,11.230,12.695
1642305316.629,21.973,27.344,42.969,14.160,21.973
1642305316.633,20.020,28.320,36.133,25.879,51.270
1642305316.637,20.508,28.809,31.738,25.879,40.527
1642305316.640,26.367,30.273,38.574,20.020,37.598
1642305316.644,25.879,28.809,46.387,16.602,16.602
1642305316.648,19.531,27.344,41.504,26.367,40.527
1642305316.652,20.996,26.367,39.551,31.250,46.387
1642305316.656,20.508,27.832,41.504,16.113,-0.977
1642305316.673,26.855,26.855,42.969,19.043,-14.648
1642305316.677,27.344,27.344,41.504,28.320,30.762
1642305316.681,19.043,26.855,37.598,25.391,20.508
1642305316.685,23.438,25.391,39.062,25.879,-8.301
1642305316.689,27.344,26.367,41.504,21.484,6.348
1642305316.693,19.531,27.344,30.762,19.531,13.184
1642305316.697,15.625,26.855,34.668,27.832,55.664
1642305316.700,17.090,26.855,41.992,28.809,75.684
1642305316.704,22.461,25.391,37.109,22.949,11.719
1642305316.708,23.926,27.832,33.691,20.996,-34.668
1642305316.712,17.578,29.785,38.574,27.344,-13.184
1642305316.716,18.555,28.809,45.410,34.668,45.410
1642305316.718,15.625,26.855,38.574,20.508,8.301
1642305316.722,17.578,26.367,34.180,18.066,-1.465
1642305316.726,19.043,27.344,39.062,30.762,55.664
1642305316.730,15.137,30.273,39.062,28.320,84.961
1642305316.734,17.090,30.762,30.762,19.531,47.852
1642305316.738,20.996,27.344,29.785,19.531,-8.789
1642305316.742,21.484,27.344,36.621,27.344,-0.488
1642305316.745,20.508,30.762,44.434,28.320,40.527
1642305316.749,21.973,32.227,42.969,24.902,55.664
1642305316.753,26.367,28.809,37.109,23.926,28.809
1642305316.757,27.344,26.855,42.480,18.555,12.695
1642305316.761,20.020,26.367,46.387,20.020,9.766
1642305316.763,15.137,29.297,41.504,18.066,26.855
1642305316.767,20.020,25.391,41.016,11.719,28.320
1642305316.771,19.531,23.438,41.016,17.090,20.996
1642305316.775,14.160,26.367,38.574,22.949,45.410
1642305316.779,12.695,23.926,37.598,20.996,62.988
1642305316.783,16.113,22.461,35.645,7.812,47.363
1642305316.787,20.508,25.391,36.621,6.836,31.250
1642305316.790,17.578,22.949,43.457,20.996,33.203
1642305316.794,16.602,18.555,41.016,22.949,59.082
1642305316.798,19.531,21.484,35.645,18.555,15.137
1642305316.802,23.438,24.414,40.527,22.461,-13.184
1642305316.806,21.973,24.414,40.527,31.250,35.156
1642305316.808,21.973,21.973,41.992,30.762,69.824
1642305316.812,21.484,20.996,43.457,21.973,60.059
1642305316.816,28.809,22.461,41.016,20.508,14.648
1642305316.820,29.785,24.414,41.992,30.273,55.664
1642305316.824,21.484,23.926,40.039,38.086,53.711
1642305316.828,20.996,22.949,40.527,30.273,43.945
1642305316.832,31.738,22.461,43.457,23.926,59.570
1642305316.835,34.180,21.973,42.969,23.926,59.570
1642305316.839,29.785,24.902,36.621,24.902,72.754
1642305316.843,32.715,27.344,40.527,32.227,68.359
1642305316.847,31.250,24.902,41.016,26.367,-2.930
1642305316.851,28.320,23.438,36.133,22.461,-55.176
1642305316.854,28.809,24.902,38.574,28.320,-19.043
1642305316.858,29.785,28.320,40.527,35.645,30.273
1642305316.862,26.367,28.809,40.039,28.809,67.871
1642305316.866,23.926,25.391,37.598,25.879,21.973
1642305316.870,22.949,24.902,35.645,27.832,12.207
1642305316.874,25.879,25.879,37.598,31.738,51.270
1642305316.878,21.484,25.879,42.480,26.855,102.051
1642305316.881,21.973,23.438,36.621,10.254,79.590
1642305316.885,21.973,23.438,34.180,9.277,-11.230
1642305316.889,13.184,24.414,46.875,26.367,58.105
1642305316.893,12.207,23.438,42.969,29.297,72.754
1642305316.897,18.066,22.461,39.062,9.766,0.977
1642305316.899,17.578,24.414,37.598,8.789,-36.621
1642305316.903,14.160,26.855,36.133,15.625,-16.113
1642305316.907,17.090,24.414,42.480,19.531,56.641
1642305316.911,26.367,24.414,39.551,25.879,34.668
1642305316.915,28.809,23.926,37.109,21.484,-27.832
1642305316.919,17.578,21.973,38.086,23.926,-42.969
1642305316.923,18.555,22.461,41.504,35.645,24.902
1642305316.926,23.926,22.949,34.668,25.391,8.301
1642305316.930,23.438,23.926,36.621,13.672,-60.059
1642305316.934,20.020,25.879,47.363,20.996,22.461
1642305316.938,14.648,25.879,41.016,26.367,60.547
1642305316.942,12.207,23.438,36.621,19.531,63.965
1642305316.943,20.020,24.414,38.574,15.625,19.531
1642305316.947,21.973,26.367,40.527,21.484,-36.133
1642305316.951,12.207,24.414,37.109,24.902,40.039
1642305316.955,10.742,26.855,33.691,21.484,51.270
1642305316.959,18.066,28.320,32.227,8.789,-19.531
1642305316.963,20.020,27.832,29.785,6.348,-5.371
1642305316.967,13.672,27.832,26.367,13.672,49.805
1642305316.970,11.719,25.879,34.668,19.531,73.730
1642305316.974,14.160,25.391,44.434,11.230,25.879
1642305316.978,20.020,26.855,41.016,6.836,-3.906
1642305316.982,18.066,24.902,36.621,19.043,0.000
1642305316.986,20.508,24.902,35.156,34.668,30.762
1642305316.987,29.785,26.855,36.133,36.133,57.129
1642305316.991,38.574,23.926,40.039,26.855,26.855
1642305316.995,36.621,24.902,41.504,27.344,3.418
1642305316.999,30.273,26.855,44.434,32.715,27.344
1642305317.003,26.367,22.949,44.434,39.551,27.832
1642305317.007,26.855,20.996,40.039,32.715,38.086
1642305317.011,22.949,24.414,39.551,18.555,39.551
1642305317.014,17.578,26.367,43.945,26.855,14.160
1642305317.018,23.926,22.461,44.434,29.297,30.273
1642305317.022,26.367,20.508,40.039,23.438,16.113
1642305317.026,23.438,21.973,35.645,17.090,33.691
1642305317.030,22.461,22.949,36.133,15.625,24.902
1642305317.033,21.484,22.461,38.574,24.902,40.039
1642305317.037,18.066,22.461,32.227,20.020,48.340
1642305317.041,19.531,18.555,29.785,10.742,36.133
1642305317.045,17.090,16.602,36.621,15.625,22.949
1642305317.049,13.672,19.531,37.598,24.414,24.902
1642305317.053,18.066,17.578,31.250,27.344,66.406
1642305317.057,25.391,17.578,35.156,27.832,67.871
1642305317.060,24.902,19.531,42.969,32.227,30.273
1642305317.064,24.902,17.578,38.574,39.062,66.895
1642305317.068,32.715,17.090,30.762,42.969,54.199
1642305317.072,37.109,19.531,34.180,33.691,17.090
1642305317.076,33.691,21.484,37.109,36.621,34.180
1642305317.094,24.902,21.484,37.109,40.039,47.363
1642305317.098,24.414,22.461,36.133,38.574,66.895
1642305317.102,26.855,22.949,33.691,38.574,8.789
1642305317.106,24.414,22.461,41.992,28.320,-28.809
1642305317.110,16.113,19.531,45.898,25.391,38.086
1642305317.114,10.254,20.508,34.180,24.902,78.125
1642305317.118,15.625,23.926,33.691,18.555,18.066
1642305317.121,25.391,22.949,41.992,19.043,-42.969
1642305317.125,25.391,21.973,34.180,31.250,-22.949
1642305317.129,23.926,24.414,33.203,35.156,17.090
1642305317.133,26.855,26.855,38.574,30.762,77.637
1642305317.137,30.762,28.809,34.180,18.555,54.688
1642305317.138,28.809,29.785,29.297,12.207,-25.879
1642305317.142,23.926,30.273,33.691,31.738,21.973
1642305317.146,24.902,29.785,37.109,40.527,77.637
1642305317.150,30.273,26.855,33.691,17.578,26.367
1642305317.154,27.832,27.344,29.785,3.906,6.348
1642305317.158,22.461,28.809,32.715,15.137,45.410
1642305317.162,24.414,25.879,34.668,26.855,23.926
1642305317.165,28.320,26.367,39.062,23.926,-17.578
1642305317.169,26.367,27.344,37.598,21.484,-21.973
1642305317.173,19.531,23.926,33.691,25.391,-43.945
1642305317.177,19.043,25.879,49.316,41.992,41.016
1642305317.181,22.461,26.367,47.852,50.293,78.125
1642305317.182,24.902,22.949,37.109,29.785,43.457
1642305317.186,18.555,18.555,39.551,13.672,28.809
1642305317.190,19.043,23.926,42.969,19.043,84.961
1642305317.194,27.832,27.832,38.086,20.508,77.148
1642305317.198,31.738,25.391,36.621,19.531,2.930
1642305317.202,12.695,21.484,33.203,3.418,-6.836
1642305317.206,4.395,24.414,36.621,8.301,49.316
1642305317.209,19.043,32.715,39.062,32.227,83.008
1642305317.213,18.555,33.691,30.273,25.391,41.992
1642305317.217,21.973,33.691,33.691,15.137,-12.695
1642305317.221,23.926,32.227,41.016,21.484,18.555
1642305317.225,20.508,34.668,41.016,21.484,41.992
1642305317.227,23.438,35.156,40.527,19.531,-7.812
1642305317.231,32.227,32.715,51.758,28.320,-35.645
1642305317.235,22.461,35.156,53.223,24.414,1.465
1642305317.239,12.207,34.180,42.480,18.555,43.457
1642305317.243,17.578,33.203,41.992,8.789,30.273
1642305317.247,16.602,36.621,42.969,-7.812,-27.832
1642305317.251,14.160,40.039,47.852,-7.812,-66.895
1642305317.254,4.883,41.504,56.641,-5.859,17.578
1642305317.258,-9.277,41.992,54.688,-18.555,91.309
1642305317.262,-20.996,41.504,57.617,-28.809,40.527
1642305317.266,-42.480,37.109,59.082,-34.180,-7.324
1642305317.270,-52.246,32.715,58.594,-27.832,20.020
1642305317.273,-43.457,35.645,64.453,-27.344,48.828
1642305317.277,-44.434,43.457,62.500,-46.387,32.715
1642305317.281,-43.945,39.062,58.105,-55.176,20.996
1642305317.285,-35.645,35.156,55.664,-40.527,28.809
1642305317.289,-35.156,38.086,54.688,-28.809,84.961
1642305317.293,-32.715,36.133,49.316,-34.180,72.754
1642305317.297,-11.719,32.715,46.387,-24.414,13.184
1642305317.300,-3.906,32.227,40.039,-12.207,24.414
1642305317.304,-2.441,32.715,40.527,-10.742,60.059
1642305317.308,5.371,32.227,44.434,-0.977,60.547
1642305317.312,19.531,30.762,35.645,14.648,21.484
1642305317.316,22.461,30.762,35.645,23.438,12.695
1642305317.319,15.625,30.273,39.551,22.461,43.457
1642305317.323,25.391,25.391,33.203,23.926,85.938
1642305317.327,33.691,22.949,26.367,26.855,51.758
1642305317.331,41.016,23.926,31.738,34.668,-14.160
1642305317.335,51.270,23.438,35.156,49.805,26.855
1642305317.339,52.734,25.391,29.785,57.129,72.266
1642305317.343,55.176,24.414,25.879,54.688,41.992
1642305317.346,60.059,21.484,27.344,52.246,-6.348
1642305317.350,59.570,20.996,34.668,57.617,15.625
1642305317.354,61.035,25.391,32.715,68.848,83.496
1642305317.358,62.500,28.320,29.785,61.035,77.637
1642305317.362,63.477,22.461,31.250,55.664,15.625
1642305317.363,61.523,20.996,33.691,59.570,37.598
1642305317.367,58.105,20.508,29.785,61.035,37.109
1642305317.371,57.129,17.090,29.297,61.035,9.277
1642305317.375,62.012,14.648,37.598,52.734,26.855
1642305317.379,62.988,13.672,35.156,56.641,44.922
1642305317.383,61.523,13.672,30.762,74.219,31.738
1642305317.387,57.617,12.695,31.250,72.754,30.762
1642305317.390,59.570,15.137,36.133,62.500,28.320
1642305317.394,61.035,17.090,41.016,64.453,40.039
1642305317.398,53.223,13.672,33.691,65.430,21.973
1642305317.402,52.246,14.648,30.273,62.988,18.066
1642305317.406,52.246,16.113,29.785,52.734,42.480
1642305317.423,50.293,14.648,32.227,46.387,30.762
1642305317.427,47.852,15.137,30.762,56.152,20.020
1642305317.431,43.945,19.531,32.715,54.688,62.988
1642305317.435,44.922,21.484,37.109,43.945,83.984
1642305317.439,58.105,20.996,30.762,48.828,26.367
1642305317.443,53.711,22.949,21.973,55.664,8.301
1642305317.447,48.828,25.879,27.344,61.035,58.594
1642305317.450,51.758,27.832,34.180,54.199,71.289
1642305317.454,50.293,27.344,32.227,39.062,42.969
1642305317.458,51.758,27.344,27.344,31.250,6.348
1642305317.462,47.363,25.879,27.344,32.227,13.184
1642305317.466,46.875,26.855,37.109,41.992,75.195
1642305317.468,48.340,29.785,30.762,39.551,48.340
1642305317.472,45.898,30.273,28.320,30.273,16.113
1642305317.476,41.016,29.785,34.180,36.133,62.012
1642305317.480,41.504,31.250,34.668,41.504,73.730
1642305317.484,43.457,29.785,28.809,32.227,37.109
1642305317.488,42.969,25.391,25.391,27.832,6.836
1642305317.492,37.598,22.949,29.297,32.715,14.648
1642305317.495,37.109,24.414,34.180,37.109,52.246
1642305317.499,40.039,26.367,33.203,36.133,41.992
1642305317.503,41.016,24.902,28.320,27.344,22.949
1642305317.507,32.715,24.902,31.738,22.461,0.977
1642305317.511,23.926,24.414,37.109,27.832,34.180
1642305317.512,26.367,25.391,28.320,29.785,75.195
1642305317.516,32.227,24.414,24.414,28.320,20.508
1642305317.520,29.297,22.461,32.715,31.738,16.113
1642305317.524,20.996,24.414,34.180,28.320,35.645
1642305317.528,22.461,28.320,31.250,29.785,5.371
1642305317.532,29.785,27.832,31.738,28.320,7.812
1642305317.536,28.809,26.855,36.621,25.391,-7.324
1642305317.539,22.949,25.879,40.527,33.691,23.438
1642305317.543,18.066,21.973,36.621,29.297,72.754
1642305317.547,13.672,21.973,34.180,17.090,36.621
1642305317.551,18.555,23.438,40.039,12.695,12.207
1642305317.555,19.531,24.414,39.551,21.484,0.000
1642305317.559,15.625,24.414,40.527,31.738,44.922
1642305317.563,8.789,24.902,40.527,25.879,54.688
1642305317.567,16.602,24.902,36.621,22.461,-37.598
1642305317.571,18.555,20.996,37.598,23.926,-39.551
1642305317.575,7.812,21.973,35.645,25.879,34.668
1642305317.579,10.254,24.902,31.738,21.973,66.895
1642305317.583,21.484,25.391,34.180,20.020,65.430
1642305317.586,26.367,26.367,30.273,23.438,-5.859
1642305317.590,21.484,27.344,31.250,29.785,-13.184
1642305317.594,18.555,32.227,37.109,37.109,55.176
1642305317.598,24.414,32.715,33.203,31.738,-13.672
1642305317.602,28.809,24.414,29.785,23.438,-44.922
1642305317.604,25.391,24.902,27.832,18.066,9.277
1642305317.608,25.391,27.832,38.086,23.926,83.984
1642305317.612,30.273,25.879,39.062,22.949,96.680
1642305317.616,34.668,26.855,29.785,14.160,1.465
1642305317.620,29.297,26.855,28.809,16.113,-13.184
1642305317.624,26.367,25.391,32.227,27.344,48.340
1642305317.628,31.250,28.809,35.156,33.203,47.363
1642305317.631,35.645,31.738,31.738,26.855,31.738
1642305317.635,34.180,28.320,29.785,21.484,25.391
1642305317.639,30.762,27.832,45.410,30.273,43.457
1642305317.643,32.227,27.344,43.945,29.785,68.848
1642305317.647,32.227,28.320,35.645,19.043,18.555
1642305317.648,32.227,29.785,41.016,20.508,-5.371
1642305317.652,27.832,28.320,41.016,29.785,30.273
1642305317.656,20.020,28.320,39.551,26.855,76.660
1642305317.660,21.484,26.855,37.598,20.996,45.898
1642305317.664,27.832,27.344,36.133,20.996,-15.625
1642305317.668,24.414,27.344,32.227,19.531,-12.207
1642305317.672,23.438,27.344,33.203,23.438,1.465
1642305317.675,22.949,28.320,30.762,17.578,48.340
1642305317.679,18.066,23.926,37.598,2.441,15.625
1642305317.683,13.184,23.438,48.828,2.930,-22.461
1642305317.687,7.812,25.879,41.016,13.184,77.148
1642305317.691,4.883,23.926,37.109,14.648,82.031
1642305317.693,13.184,23.926,39.062,7.812,-12.695
1642305317.697,18.066,27.344,42.480,7.324,-15.137
1642305317.701,15.625,26.855,36.621,14.648,15.625
1642305317.705,13.672,24.414,33.203,20.020,64.453
1642305317.709,18.066,24.902,35.645,14.648,86.914
1642305317.713,21.484,25.391,34.180,15.625,31.738
1642305317.717,18.066,24.414,27.832,13.184,0.488
1642305317.720,19.531,25.879,28.809,9.277,15.625
1642305317.724,27.344,25.879,39.062,8.789,66.895
1642305317.728,26.367,23.926,37.598,2.441,87.891
1642305317.732,15.625,25.879,28.809,5.859,39.062
1642305317.736,15.625,27.344,29.297,18.555,47.363
1642305317.737,18.066,26.855,30.273,16.113,50.781
1642305317.741,21.973,22.949,28.809,15.625,13.672
1642305317.745,18.555,21.973,28.809,20.020,11.230
1642305317.749,14.160,22.949,30.762,21.973,36.133
1642305317.753,15.625,20.996,30.762,21.973,24.902
1642305317.757,20.020,21.973,27.832,20.996,-28.809
1642305317.761,26.855,21.973,25.879,21.973,39.551
1642305317.764,22.949,23.926,33.203,21.484,99.121
1642305317.768,19.043,24.902,40.527,24.414,98.633
1642305317.772,22.461,21.973,37.598,22.949,75.195
1642305317.776,27.344,24.902,36.133,21.973,19.043
1642305317.780,28.320,28.320,37.598,26.855,70.312
1642305317.814,26.367,27.832,36.133,30.273,105.957
1642305317.818,24.414,27.344,28.809,19.531,16.113
1642305317.822,28.320,26.367,33.203,19.531,-11.719
1642305317.826,23.926,26.855,40.039,24.902,31.250
1642305317.830,21.973,28.320,37.598,23.926,48.340
1642305317.834,23.926,25.391,31.738,23.438,61.523
1642305317.838,25.391,22.949,25.879,16.602,-17.090
1642305317.841,26.367,25.391,35.156,13.184,-32.715
1642305317.845,26.367,29.297,38.574,18.555,29.297
1642305317.849,21.973,27.832,36.133,19.531,32.715
1642305317.853,20.508,24.902,40.039,15.625,12.207
1642305317.857,24.902,27.344,43.457,20.508,10.254
1642305317.844,20.020,28.320,40.039,28.809,22.461
1642305317.848,21.484,28.320,41.016,31.250,39.551
1642305317.852,26.855,27.832,44.922,22.949,19.043
1642305317.856,28.320,29.297,41.016,22.949,20.996
1642305317.860,22.949,29.297,33.203,26.367,14.160
1642305317.864,21.973,26.855,31.250,27.832,31.738
1642305317.868,26.855,27.832,34.668,24.414,39.062
1642305317.871,32.715,29.785,37.598,18.555,19.043
1642305317.875,30.273,28.809,33.691,19.043,-6.836
1642305317.879,23.438,27.832,33.691,27.832,14.648
1642305317.883,24.902,31.738,38.086,29.785,64.941
1642305317.887,34.668,31.738,41.504,23.438,64.453
1642305317.889,36.133,30.762,41.504,29.785,46.387
1642305317.893,27.344,28.320,34.180,31.250,41.016
1642305317.897,26.855,25.879,36.133,30.762,18.066
1642305317.901,28.320,26.855,41.016,28.809,16.602
1642305317.905,22.949,26.855,33.691,16.113,-18.555
1642305317.909,13.184,27.832,33.203,19.043,-19.531
1642305317.913,8.301,27.344,39.551,26.855,50.293
1642305317.916,12.207,25.879,41.992,21.973,49.805
1642305317.920,17.578,25.391,37.598,13.184,30.273
1642305317.924,17.090,25.391,35.645,12.695,20.508
1642305317.928,21.973,30.762,45.898,27.344,61.035
1642305317.932,21.973,29.785,45.410,26.367,64.941
1642305317.932,22.949,20.996,42.480,18.555,24.414
1642305317.936,27.832,21.973,43.457,20.508,51.758
1642305317.940,19.531,27.832,40.527,19.531,61.523
1642305317.944,20.020,27.344,36.133,20.996,34.180
1642305317.948,32.227,26.367,36.621,22.949,28.809
1642305317.952,29.297,26.367,38.086,21.484,22.461
1642305317.956,20.508,23.926,40.039,27.344,37.598
1642305317.959,20.020,24.902,40.039,33.203,31.738
1642305317.963,20.996,29.785,36.621,25.879,-21.484
1642305317.967,23.438,30.762,39.551,20.020,-49.805
1642305317.971,20.020,26.367,44.434,25.879,11.719
1642305317.975,17.578,25.391,44.434,27.832,62.012
1642305317.977,19.531,25.391,41.992,19.531,52.734
1642305317.981,21.484,26.367,43.945,17.578,22.949
1642305317.985,20.508,25.879,40.527,29.785,-20.508
1642305317.989,20.508,25.879,40.039,42.969,2.930
1642305317.993,29.297,27.344,43.457,41.504,54.688
1642305317.997,37.109,26.367,41.016,28.320,1.953
1642305318.001,27.344,25.879,44.434,21.484,-33.203
1642305318.004,20.996,27.344,39.551,28.320,49.316
1642305318.008,19.531,25.879,35.156,32.715,27.344
1642305318.012,19.531,25.879,46.387,17.090,11.230
1642305318.016,22.949,25.879,43.945,9.766,62.988
1642305318.020,20.508,25.879,40.527,27.832,44.922
1642305318.024,25.391,29.785,37.109,32.227,46.387
1642305318.028,31.250,31.738,35.645,27.344,46.387
1642305318.032,30.762,30.762,38.086,20.020,29.785
1642305318.036,29.297,33.691,34.668,21.484,12.695
1642305318.040,28.320,32.227,39.062,32.227,60.547
1642305318.044,25.879,28.809,34.180,20.996,33.203
1642305318.048,29.297,30.762,28.320,9.277,-47.852
1642305318.051,23.438,29.297,29.297,11.230,12.207
1642305318.055,19.043,28.809,36.133,19.043,64.941
1642305318.059,23.438,30.762,38.574,24.414,26.367
1642305318.063,28.809,33.203,31.738,23.926,23.926
1642305318.067,29.297,33.203,31.738,21.484,15.137
1642305318.068,24.414,33.691,35.645,21.484,20.508
1642305318.072,23.438,31.738,35.156,21.973,62.500
1642305318.076,26.367,27.832,33.203,19.043,49.805
1642305318.080,28.320,22.461,31.738,25.879,25.879
1642305318.084,20.020,22.461,30.273,31.738,-3.906
1642305318.088,16.602,26.367,35.645,31.738,32.227
1642305318.092,19.531,25.879,31.250,19.531,67.383
1642305318.095,24.414,27.344,27.832,10.254,41.992
1642305318.099,25.391,29.785,38.574,25.879,23.438
1642305318.103,21.973,24.414,43.945,38.086,64.453
1642305318.107,18.555,20.508,39.551,23.926,31.738
1642305318.111,23.438,24.902,38.574,10.742,-2.441
1642305318.113,21.973,24.902,41.992,16.602,35.645
1642305318.117,18.066,25.391,40.527,26.367,38.574
1642305318.121,20.020,28.809,36.133,30.762,37.598
1642305318.125,22.461,27.832,36.133,23.438,10.742
1642305318.129,20.508,30.273,35.645,19.043,-21.973
1642305318.133,20.020,29.297,35.156,26.367,19.531
1642305318.137,22.949,27.344,31.250,26.855,50.781
1642305318.140,27.344,28.320,34.180,18.066,8.301
1642305318.144,23.926,27.832,43.945,14.648,-5.859
1642305318.148,17.578,28.809,40.527,23.926,42.480
1642305318.152,21.973,28.320,41.016,31.250,64.453
1642305318.156,26.855,29.785,41.016,22.949,19.531
1642305318.173,28.320,28.320,37.109,19.531,-19.531
1642305318.177,28.809,27.344,37.109,26.855,-4.883
1642305318.181,24.902,27.832,39.062,33.203,75.195
1642305318.185,18.066,23.438,38.086,27.344,77.148
1642305318.189,26.855,24.902,33.203,23.438,19.043
1642305318.193,24.902,28.809,28.320,28.809,21.484
1642305318.197,18.555,30.762,30.762,29.785,72.754
1642305318.200,27.832,32.227,38.574,26.367,87.891
1642305318.204,30.273,32.227,39.062,21.973,22.461
1642305318.208,24.902,35.156,33.691,14.648,-46.387
1642305318.212,22.949,34.180,35.645,20.020,25.879
1642305318.216,24.902,28.320,41.992,24.902,63.477
1642305318.218,25.391,28.320,38.086,19.531,-11.230
1642305318.222,27.832,29.785,36.133,12.207,-8.301
1642305318.226,28.320,30.273,36.621,14.160,43.945
1642305318.230,27.344,32.715,39.551,17.090,93.262
1642305318.234,27.832,32.227,33.203,7.812,35.156
1642305318.238,30.762,30.273,27.344,4.395,-38.086
1642305318.242,25.879,31.738,36.133,12.207,11.719
1642305318.245,19.531,28.320,42.480,14.648,47.363
1642305318.249,18.066,23.438,38.574,9.766,25.879
1642305318.253,17.578,25.391,31.738,9.766,7.812
1642305318.257,11.230,26.855,39.551,18.066,-32.227
1642305318.261,8.301,26.855,49.316,26.367,17.578
1642305318.263,11.719,27.344,41.016,15.137,100.586
1642305318.267,19.043,26.367,34.668,12.695,-5.371
1642305318.271,18.555,27.344,44.922,19.043,-0.488
1642305318.275,8.789,27.344,44.922,16.602,60.059
1642305318.279,14.648,24.902,38.574,24.414,51.758
1642305318.283,19.531,22.949,37.598,20.996,56.152
1642305318.287,20.020,25.879,37.598,9.766,6.836
1642305318.290,18.555,28.320,43.457,13.672,27.832
1642305318.294,14.160,25.879,42.969,21.973,99.609
1642305318.298,17.578,26.855,36.621,18.066,91.309
1642305318.302,23.438,25.879,40.527,13.184,42.969
1642305318.306,18.066,25.879,41.504,18.066,17.578
1642305318.308,12.207,26.855,43.457,25.391,44.434
1642305318.312,13.672,29.297,41.992,24.902,51.758
1642305318.316,15.137,29.785,40.527,19.043,23.438
1642305318.320,17.090,27.832,39.062,22.461,22.461
1642305318.324,18.555,27.832,37.109,27.344,47.852
1642305318.328,16.602,24.902,38.574,29.297,51.270
1642305318.332,16.113,21.484,40.039,20.508,-4.395
1642305318.335,14.648,22.949,37.598,9.766,-13.672
1642305318.339,11.230,25.879,32.227,20.996,9.766
1642305318.343,14.160,25.879,39.062,37.109,11.719
1642305318.347,19.531,26.855,42.480,35.156,-20.996
1642305318.351,23.438,25.879,37.598,23.926,-10.742
1642305318.353,20.020,26.367,34.668,19.531,53.223
1642305318.357,18.066,28.320,39.551,22.461,79.102
1642305318.361,21.973,28.320,41.504,21.973,45.898
1642305318.365,26.367,26.367,38.574,18.066,-22.461
1642305318.369,25.391,25.879,37.109,20.508,-57.617
1642305318.373,23.438,25.879,39.551,32.227,12.207
1642305318.377,22.949,27.344,42.480,39.551,66.895
1642305318.380,29.785,29.297,32.715,30.762,-1.465
1642305318.384,31.250,25.879,32.227,21.484,7.324
1642305318.388,22.461,26.367,44.922,32.227,53.711
1642305318.392,25.391,28.320,45.410,41.016,74.707
1642305318.396,30.762,27.832,41.504,27.344,83.008
1642305318.399,32.227,28.320,41.504,20.020,29.297
1642305318.403,28.320,28.320,42.969,29.297,37.109
1642305318.407,26.367,27.344,42.969,36.621,87.891
1642305318.411,28.809,23.926,41.016,31.250,60.059
1642305318.415,32.715,22.949,40.527,22.461,0.000
1642305318.419,30.762,28.809,37.598,20.508,-18.555
1642305318.423,30.762,28.320,36.621,27.344,26.855
1642305318.426,28.809,23.438,33.203,24.414,37.598
1642305318.430,25.391,23.926,36.133,16.602,15.137
1642305318.434,21.973,24.902,40.527,24.414,-26.855
1642305318.438,20.996,26.855,37.598,32.715,1.465
1642305318.442,20.996,26.855,34.668,24.902,28.320
1642305318.443,23.926,26.367,38.574,16.602,17.578
1642305318.447,28.809,28.809,36.621,20.508,39.062
1642305318.451,30.273,29.785,34.668,28.320,55.664
1642305318.455,31.250,29.785,38.086,31.738,50.293
1642305318.459,28.809,27.832,39.062,16.602,19.531
1642305318.463,32.227,25.879,36.621,10.254,-15.137
1642305318.467,33.203,23.926,33.203,19.531,9.277
1642305318.470,28.809,24.414,34.668,25.391,44.434
1642305318.474,27.344,25.391,44.922,19.043,29.297
1642305318.478,30.762,24.902,44.434,17.090,46.875
1642305318.482,22.949,22.949,38.086,16.602,45.898
1642305318.486,15.625,24.902,38.574,15.137,91.797
1642305318.486,15.625,24.902,38.574,15.137,91.797
1642305318.489,20.508,24.414,35.645,20.020,117.676
1642305318.493,27.344,22.949,35.156,22.461,11.719
1642305318.497,24.414,25.391,37.109,25.391,0.000
1642305318.501,20.020,25.391,40.527,30.273,62.988
1642305318.505,21.973,25.391,40.039,32.227,68.848
1642305318.509,23.926,27.344,36.133,24.414,6.836
1642305318.513,25.391,30.762,32.227,23.926,4.883
1642305318.516,23.438,29.785,35.645,34.180,-8.301
1642305318.520,22.949,25.879,41.992,38.086,24.902
1642305318.524,27.832,27.832,34.668,26.367,-2.441
1642305318.528,29.785,28.320,36.621,19.531,-14.648
1642305318.532,20.996,22.949,40.527,28.320,31.250
1642305318.549,18.555,23.438,39.551,34.668,3.418
1642305318.553,20.020,23.926,37.109,21.484,30.273
1642305318.557,21.973,21.484,35.645,16.113,23.438
1642305318.561,18.555,23.438,37.598,17.090,4.395
1642305318.565,15.137,22.949,40.527,29.297,41.992
1642305318.569,19.043,22.949,35.645,39.551,47.363
1642305318.573,21.484,25.391,32.715,16.602,18.555
1642305318.576,20.996,25.391,46.387,5.859,55.176
1642305318.580,25.391,26.855,52.246,22.949,68.359
1642305318.584,25.391,28.320,45.410,27.832,10.254
1642305318.588,27.344,27.344,41.504,21.973,-14.160
1642305318.592,31.250,27.832,43.457,24.902,57.129
1642305318.593,22.461,29.785,41.016,24.902,84.961
1642305318.597,20.508,28.320,38.574,28.809,59.082
1642305318.601,29.297,29.297,37.598,28.809,30.273
1642305318.605,32.715,28.320,34.668,20.020,21.973
1642305318.609,26.855,24.414,34.180,18.066,71.777
1642305318.613,23.926,24.414,34.668,19.531,80.078
1642305318.617,22.949,26.855,32.227,18.066,26.855
1642305318.620,26.367,24.414,39.062,14.648,-15.625
1642305318.624,22.461,21.484,45.410,16.113,62.500
1642305318.628,14.160,22.461,32.227,23.438,47.363
1642305318.632,16.602,21.484,35.156,21.973,-8.301
1642305318.636,26.367,23.438,45.410,21.484,-19.531
1642305318.638,21.484,24.902,40.527,20.508,-43.457
1642305318.642,19.531,24.902,41.016,25.391,34.668
1642305318.646,24.414,25.391,40.527,31.250,84.473
1642305318.650,25.391,24.414,39.062,24.902,33.203
1642305318.654,30.273,24.902,39.062,26.855,24.414
1642305318.658,29.297,27.344,37.109,28.809,38.086
1642305318.662,25.391,29.785,38.086,28.809,34.668
1642305318.665,24.414,27.344,41.016,22.949,33.203
1642305318.669,25.879,25.391,34.668,18.555,-19.043
1642305318.673,22.949,27.832,31.250,25.879,-33.203
1642305318.677,20.996,27.344,42.969,24.414,31.250
1642305318.681,21.973,25.879,42.969,19.531,69.336
1642305318.683,23.926,27.344,38.574,16.113,72.266
1642305318.687,20.996,24.902,37.109,20.996,19.531
1642305318.691,18.555,25.879,42.969,35.645,45.410
1642305318.695,20.508,29.297,40.039,31.738,80.078
1642305318.699,27.344,27.344,32.715,20.996,41.992
1642305318.703,25.391,24.414,35.156,24.902,28.809
1642305318.707,20.020,23.926,40.527,31.738,13.672
1642305318.710,24.902,24.902,42.480,34.180,31.250
1642305318.714,26.855,27.344,35.645,26.855,20.020
1642305318.718,23.438,27.832,39.551,20.996,43.945
1642305318.722,19.043,26.855,43.945,24.414,92.285
1642305318.726,20.020,27.832,38.086,28.809,82.031
1642305318.728,17.578,29.297,37.598,20.996,46.387
1642305318.732,18.066,26.367,40.527,17.090,-3.418
1642305318.736,21.973,24.414,35.645,26.367,-8.789
1642305318.740,21.973,25.879,31.738,28.320,56.152
1642305318.744,22.949,27.832,32.715,30.273,40.039
1642305318.748,24.902,28.320,34.668,23.926,-5.371
1642305318.752,21.973,27.344,35.156,12.207,-7.812
1642305318.755,20.996,27.344,27.832,18.066,-14.160
1642305318.759,18.066,31.250,29.785,17.578,13.672
1642305318.763,22.949,27.832,40.039,17.090,-20.996
1642305318.767,28.809,21.973,37.109,23.438,-31.250
1642305318.771,26.367,23.438,34.180,27.344,4.883
1642305318.773,23.438,25.879,41.504,27.344,40.527
1642305318.777,18.555,27.344,42.969,18.066,36.621
1642305318.781,22.461,30.273,33.691,15.625,-11.719
1642305318.785,14.648,35.156,34.668,22.949,5.859
1642305318.789,7.812,35.645,41.016,23.926,57.129
1642305318.793,16.602,32.227,35.156,20.508,50.781
1642305318.797,20.508,32.227,31.250,14.160,17.578
1642305318.800,20.020,29.297,29.785,16.602,22.461
1642305318.804,20.508,27.344,34.668,28.809,19.043
1642305318.808,22.461,27.832,41.992,26.367,21.973
1642305318.812,26.855,26.367,37.598,16.113,30.762
1642305318.816,25.391,26.367,34.180,17.578,-2.441
1642305318.818,21.973,28.320,39.062,21.973,26.855
1642305318.822,14.160,27.832,39.062,19.531,68.848
1642305318.826,15.137,25.391,31.250,13.672,-2.441
1642305318.830,22.461,25.879,31.250,11.719,-28.320
1642305318.834,18.066,27.832,34.180,17.578,36.621
1642305318.838,22.461,26.367,32.227,27.832,56.152
1642305318.842,23.438,24.902,29.297,24.902,10.254
1642305318.845,24.902,26.367,28.809,18.555,-13.672
1642305318.849,24.414,27.344,40.527,24.902,16.602
1642305318.853,14.648,25.391,43.457,22.461,45.410
1642305318.857,12.207,23.438,38.574,8.789,53.223
1642305318.861,17.090,26.367,40.527,7.812,32.227
1642305318.863,11.719,27.832,38.086,11.230,29.297
1642305318.867,11.230,22.949,38.086,15.137,53.711
1642305318.871,21.973,23.438,39.551,23.926,52.734
1642305318.875,21.973,27.344,39.062,22.949,50.293
1642305318.879,20.996,27.344,38.086,21.484,12.695
1642305318.883,23.438,25.879,37.109,24.414,14.160
1642305318.887,21.973,25.879,30.273,20.020,26.855
1642305318.890,21.973,25.879,35.645,16.113,-12.695
1642305318.894,22.461,25.391,41.504,17.090,15.625
1642305318.898,17.090,23.438,35.156,19.531,15.625
1642305318.902,20.020,23.438,36.133,30.762,13.184
1642305318.906,23.926,23.926,40.527,31.250,37.598
1642305318.922,20.508,23.438,40.039,17.090,6.348
1642305318.926,20.020,25.391,34.668,22.949,-20.508
1642305318.930,22.949,25.879,33.691,36.133,-3.418
1642305318.934,21.484,25.879,35.156,22.949,58.594
1642305318.938,23.926,26.855,32.715,15.625,37.109
1642305318.942,19.043,22.461,30.273,17.578,8.301
1642305318.946,15.625,21.484,35.645,22.461,67.871
1642305318.949,20.996,25.879,41.016,28.320,71.289
1642305318.953,22.461,24.414,38.086,23.438,16.113
1642305318.957,21.973,23.926,32.227,18.555,-32.715
1642305318.961,14.160,28.809,36.621,14.160,-0.977
1642305318.965,15.137,30.273,39.062,20.508,95.703
1642305318.967,20.996,27.832,34.668,24.902,52.246
1642305318.971,21.973,27.832,35.645,16.602,-32.715
1642305318.975,23.438,27.832,40.527,19.043,-32.227
1642305318.979,22.461,26.367,41.016,23.926,23.438
1642305318.983,18.555,24.902,37.109,15.137,27.832
1642305318.987,20.996,25.879,39.551,13.184,13.672
1642305318.991,21.973,26.855,40.527,24.902,39.551
1642305318.994,18.066,25.391,42.480,31.250,45.410
1642305318.998,16.113,24.902,40.039,24.414,82.031
1642305319.002,22.461,25.879,27.832,16.113,53.711
1642305319.006,21.484,25.879,31.738,16.113,1.465
1642305319.010,12.207,26.367,41.992,22.461,33.203
1642305319.013,6.836,27.832,37.598,22.461,62.500
1642305319.017,11.230,25.879,35.156,18.555,53.223
1642305319.021,18.555,26.367,36.621,15.137,3.418
1642305319.025,13.672,27.344,42.969,20.508,14.648
1642305319.029,14.160,25.879,39.062,30.762,53.711
1642305319.033,20.508,28.320,30.273,20.996,0.977
1642305319.037,19.043,29.785,37.109,7.324,-2.930
1642305319.040,21.973,28.809,41.504,16.113,43.945
1642305319.044,25.879,29.785,34.668,18.066,57.617
1642305319.048,23.438,31.738,30.762,11.719,56.641
1642305319.052,28.320,30.762,36.133,19.043,-20.996
1642305319.056,25.391,28.320,32.715,23.438,-23.926
1642305319.059,23.926,28.809,36.621,26.367,75.195
1642305319.063,29.297,29.785,40.039,26.855,75.195
1642305319.067,33.691,26.855,36.133,24.414,1.953
1642305319.071,34.180,26.367,36.621,26.855,-28.320
1642305319.075,32.227,30.762,37.598,36.621,27.832
1642305319.079,25.391,32.227,37.109,31.738,82.520
1642305319.083,28.320,29.297,35.645,26.855,-5.371
1642305319.086,36.621,30.762,39.062,40.527,-48.340
1642305319.090,26.855,30.762,32.715,28.809,-29.785
1642305319.094,30.273,30.762,37.598,22.949,41.992
1642305319.098,29.785,26.367,44.922,21.973,55.176
1642305319.102,27.832,27.344,40.039,14.648,29.297
1642305319.103,19.531,29.785,34.668,11.719,43.457
1642305319.107,7.812,27.344,39.551,16.113,64.453
1642305319.111,24.414,24.902,48.828,31.250,79.102
1642305319.115,38.086,28.809,42.969,29.785,16.602
1642305319.119,32.715,35.156,35.645,26.367,-16.113
1642305319.123,29.785,33.691,40.039,30.273,41.992
1642305319.127,27.832,34.180,44.434,32.227,84.473
1642305319.130,-1.953,27.344,33.203,-12.207,44.434
1642305319.134,-17.090,19.531,45.410,-36.133,20.996
1642305319.138,6.836,30.762,64.453,17.090,36.133
1642305319.142,12.695,40.039,54.688,37.598,63.477
1642305319.146,3.418,32.715,53.223,8.789,34.180
1642305319.148,-0.488,26.855,54.688,-14.160,-9.766
1642305319.152,-9.277,28.320,56.641,-7.812,25.879
1642305319.156,-14.160,32.715,56.152,4.883,61.523
1642305319.160,-19.043,32.227,50.781,-9.277,12.207
1642305319.164,-15.625,35.645,49.805,-15.137,-7.812
1642305319.168,-13.672,36.621,53.223,-7.324,15.625
1642305319.172,-15.137,31.250,57.129,6.836,34.668
1642305319.175,-11.719,31.250,49.805,11.719,51.758
1642305319.179,-12.695,32.227,55.176,-10.254,25.391
1642305319.183,-12.207,32.227,63.477,-17.090,13.672
1642305319.187,-11.719,31.738,54.688,-3.418,28.320
1642305319.191,-7.324,29.785,48.828,3.418,37.598
1642305319.194,8.301,31.738,51.758,13.184,25.391
1642305319.198,12.207,32.227,48.828,12.695,32.227
1642305319.202,4.395,28.320,43.945,8.301,73.242
1642305319.206,9.277,24.902,43.945,19.043,116.699
1642305319.210,20.020,31.250,41.016,26.367,37.598
1642305319.214,23.926,31.250,38.574,29.297,-26.367
1642305319.218,23.926,24.414,37.598,30.762,-24.414
1642305319.221,26.855,24.414,39.551,39.551,31.738
1642305319.225,31.738,25.391,43.457,34.668,62.988
1642305319.229,40.039,27.344,38.574,24.414,-5.371
1642305319.233,36.133,26.367,36.621,26.367,8.789
1642305319.237,31.738,26.367,38.086,36.133,71.777
1642305319.238,36.621,23.438,38.086,45.410,100.098
1642305319.242,42.480,21.484,32.715,41.016,18.066
1642305319.246,45.898,24.414,28.320,36.621,-13.672
1642305319.250,45.898,23.926,27.344,41.504,20.508
1642305319.254,41.992,24.414,27.344,42.480,62.012
1642305319.258,45.898,24.414,26.855,38.574,76.660
1642305319.262,47.852,22.949,22.461,33.691,8.301
1642305319.265,38.574,21.973,26.367,37.598,-0.977
1642305319.269,34.668,19.531,37.109,47.363,38.086
1642305319.273,37.598,16.602,32.227,54.199,37.598
1642305319.277,40.527,19.043,26.367,53.223,31.250
1642305319.281,34.180,21.484,27.832,51.270,65.918
1642305319.285,33.691,20.020,25.391,50.293,41.504
1642305319.289,41.016,21.973,21.484,40.527,6.348
1642305319.293,45.898,23.926,23.926,37.109,10.254
1642305319.297,42.480,22.461,27.344,42.480,13.672
1642305319.301,41.504,19.531,27.344,52.246,44.434
1642305319.305,42.969,20.020,19.531,46.875,50.781
1642305319.309,41.992,19.531,22.461,42.480,31.250
1642305319.312,38.574,19.043,31.738,43.457,28.809
1642305319.316,34.668,20.996,28.809,43.945,20.996
1642305319.320,34.180,19.043,25.879,38.086,68.848
1642305319.324,38.574,20.020,26.367,26.855,66.895
1642305319.328,41.504,23.438,25.879,34.668,31.250
1642305319.344,38.574,25.391,21.484,44.434,41.992
1642305319.348,40.527,25.391,24.414,48.340,61.523
1642305319.352,43.457,21.484,27.344,40.039,45.410
1642305319.356,46.387,20.508,27.344,25.391,36.133
1642305319.360,39.062,21.484,29.297,42.969,89.844
1642305319.364,29.297,21.973,22.949,47.852,84.473
1642305319.368,31.738,23.438,21.973,23.438,38.086
1642305319.371,36.133,21.973,36.621,23.926,19.043
1642305319.375,32.715,23.438,35.645,34.180,-3.418
1642305319.379,30.762,26.367,34.180,43.457,1.465
1642305319.383,31.738,25.879,39.062,46.875,31.738
1642305319.387,37.109,26.367,39.062,40.039,23.926
1642305319.388,32.227,24.414,35.645,33.203,-1.953
1642305319.392,27.832,24.414,36.621,39.551,4.395
1642305319.396,27.344,30.273,38.574,42.969,41.992
1642305319.400,28.809,29.785,33.691,27.344,43.945
1642305319.404,31.738,23.438,32.715,21.484,-6.348
1642305319.408,31.250,21.973,33.691,35.645,-24.414
1642305319.412,33.691,26.367,38.086,47.363,23.438
1642305319.415,31.250,24.414,41.016,44.922,38.086
1642305319.419,32.227,24.414,35.645,32.227,-17.090
1642305319.423,31.250,27.832,36.133,30.273,-2.441
1642305319.427,30.762,26.855,43.945,38.574,69.336
1642305319.431,35.156,24.414,42.480,36.133,43.457
1642305319.433,41.992,23.926,40.039,31.738,-2.930
1642305319.437,40.527,22.461,39.551,35.156,-42.480
1642305319.441,31.250,24.414,44.922,40.039,11.230
1642305319.445,30.273,27.832,42.969,36.621,31.250
1642305319.449,36.133,24.902,38.086,37.109,11.719
1642305319.453,35.156,22.949,35.645,41.504,17.578
1642305319.457,34.180,27.344,39.551,45.410,0.977
1642305319.460,34.668,26.855,41.992,49.316,35.645
1642305319.464,33.203,22.461,31.250,34.668,-1.953
1642305319.468,34.180,23.926,35.645,16.602,-19.043
1642305319.472,31.738,22.949,41.016,19.531,49.805
1642305319.476,31.738,22.461,37.598,29.297,48.340
1642305319.479,34.180,25.879,36.621,24.414,1.953
1642305319.483,41.016,24.414,37.109,25.391,8.301
1642305319.487,40.039,25.391,36.621,35.645,36.621
1642305319.491,34.668,28.320,32.227,31.250,64.453
1642305319.495,37.109,28.320,33.691,25.391,82.031
1642305319.499,44.922,30.762,33.203,22.461,20.508
1642305319.503,41.016,28.809,31.738,21.484,-4.395
1642305319.506,35.156,28.320,31.738,32.715,56.152
1642305319.510,34.668,27.832,31.250,33.203,48.340
1642305319.514,34.668,24.902,38.086,23.926,36.133
1642305319.518,33.691,27.344,35.645,23.926,35.645
1642305319.522,31.250,28.320,31.738,34.180,30.273
1642305319.523,29.785,26.367,33.691,40.039,37.109
1642305319.527,27.832,28.320,33.691,29.297,36.621
1642305319.531,30.762,28.320,29.297,29.297,20.996
1642305319.535,26.367,25.391,29.785,38.086,4.883
1642305319.539,24.414,27.832,29.297,29.785,25.391
1642305319.543,34.180,27.832,28.809,20.508,0.000
1642305319.547,37.598,27.832,37.598,19.043,20.996
1642305319.550,24.414,29.785,30.762,18.066,36.133
1642305319.554,19.531,26.367,30.273,22.949,3.906
1642305319.558,23.438,25.879,40.039,30.273,23.926
1642305319.562,24.902,30.273,30.762,25.391,-20.508
1642305319.566,23.438,24.902,29.297,17.090,15.625
1642305319.567,26.855,24.902,32.227,29.785,65.918
1642305319.571,22.949,29.297,30.762,26.855,46.387
1642305319.575,25.879,27.832,29.785,8.789,52.734
1642305319.579,33.691,26.367,30.273,10.742,11.230
1642305319.583,22.949,23.438,34.180,22.949,-21.484
1642305319.587,24.414,24.414,30.273,33.691,7.324
1642305319.591,30.762,25.391,23.438,30.762,24.902
1642305319.594,30.762,26.855,25.391,16.113,18.555
1642305319.598,33.691,31.738,35.156,18.066,30.273
1642305319.602,32.227,28.320,34.668,24.902,39.551
1642305319.606,30.762,25.391,32.715,23.438,34.180
1642305319.610,36.133,27.832,35.156,29.785,29.297
1642305319.612,30.762,26.855,40.039,32.227,29.297
1642305319.616,25.391,24.902,42.480,37.109,63.477
1642305319.620,28.320,23.926,39.062,41.504,46.387
1642305319.624,27.832,24.414,38.574,28.809,0.488
1642305319.628,25.879,25.391,43.945,29.297,24.414
1642305319.632,28.320,26.367,39.062,46.875,50.781
1642305319.636,29.297,26.855,36.133,40.527,53.711
1642305319.639,30.273,25.879,41.016,19.043,-4.395
1642305319.643,33.691,26.855,40.527,16.602,-10.742
1642305319.647,24.902,26.367,36.133,18.066,4.395
1642305319.651,21.484,23.438,34.180,22.461,13.672
1642305319.655,25.391,27.344,40.039,24.902,13.672
1642305319.659,22.461,29.297,40.527,18.066,-1.465
1642305319.663,21.484,28.809,34.180,18.555,-19.531
1642305319.667,20.508,28.809,37.598,23.926,23.438
1642305319.671,17.090,24.414,41.016,21.484,56.152
1642305319.675,20.020,22.461,37.598,19.043,33.203
1642305319.679,13.184,23.438,33.203,16.602,9.766
1642305319.683,11.719,25.879,33.691,20.508,11.719
1642305319.686,18.066,26.855,41.016,25.879,24.902
1642305319.690,20.996,25.879,41.992,18.066,9.766
1642305319.694,19.531,24.414,38.086,18.555,-20.508
1642305319.698,14.160,22.949,42.969,30.762,-4.883
1642305319.702,17.090,25.391,47.852,32.715,60.059
1642305319.717,19.043,26.855,41.016,24.414,51.270
1642305319.721,17.090,25.391,38.086,17.578,19.531
1642305319.725,19.043,20.508,40.527,20.020,37.109
1642305319.729,19.531,20.020,41.504,25.879,68.359
1642305319.733,18.066,20.508,39.062,20.996,63.965
1642305319.737,23.438,19.531,29.785,18.555,37.598
1642305319.741,20.508,20.996,34.180,20.508,21.973
1642305319.744,21.484,24.902,45.898,27.344,64.453
1642305319.748,21.973,23.926,41.016,32.227,57.129
1642305319.752,19.043,20.508,38.086,20.996,10.254
1642305319.756,20.020,20.508,39.551,12.695,23.926
1642305319.760,19.043,22.949,37.598,32.227,19.531
1642305319.763,19.043,22.949,34.668,40.039,22.949
1642305319.767,26.855,21.973,34.668,23.438,-9.766
1642305319.771,35.156,24.414,38.574,25.879,-35.645
1642305319.775,29.785,26.855,38.086,31.250,7.812
1642305319.779,27.344,26.367,34.668,29.297,57.617
1642305319.783,34.668,26.855,34.668,27.832,16.602
1642305319.787,37.109,27.344,41.016,27.832,-7.812
1642305319.790,28.320,23.926,42.969,25.391,-7.812
1642305319.794,27.344,25.391,36.621,29.297,20.996
1642305319.798,31.250,28.809,34.180,24.902,23.438
1642305319.802,36.133,28.320,42.480,20.996,-19.531
1642305319.806,30.762,26.367,42.969,21.484,16.602
1642305319.808,23.438,25.879,37.598,25.879,103.516
1642305319.812,24.902,25.879,36.621,28.809,86.426
1642305319.816,20.996,22.949,37.109,19.043,-5.371
1642305319.820,20.996,22.461,34.180,22.461,-7.324
1642305319.824,25.879,23.438,35.645,36.133,41.504
1642305319.828,20.996,22.949,35.156,24.414,61.035
1642305319.832,20.996,22.461,34.668,8.789,81.055
1642305319.835,28.320,22.949,36.621,15.137,82.520
1642305319.839,24.414,26.855,29.785,23.926,22.461
1642305319.843,23.926,28.320,34.668,27.344,11.230
1642305319.847,23.926,24.414,41.016,17.578,-2.930
1642305319.851,24.414,22.949,33.691,18.066,-25.879
1642305319.853,21.973,24.414,35.156,27.832,11.230
1642305319.857,21.484,26.367,41.016,36.621,61.035
1642305319.861,25.391,25.879,39.062,38.574,46.387
1642305319.865,28.809,24.414,35.156,33.203,35.645
1642305319.869,24.902,24.414,35.156,28.809,72.754
1642305319.873,20.508,25.879,35.645,30.762,52.734
1642305319.877,25.391,27.344,38.086,34.180,33.203
1642305319.880,30.273,25.391,33.691,22.949,-15.137
1642305319.884,25.879,25.879,31.250,16.113,-35.645
1642305319.888,18.555,27.344,39.551,31.738,17.090
1642305319.892,19.531,29.297,38.574,43.457,33.691
1642305319.896,21.973,29.785,35.156,22.461,-39.551
1642305319.898,20.996,26.855,36.621,11.230,-36.621
1642305319.902,20.020,24.414,39.551,24.414,7.324
1642305319.906,16.113,23.438,41.992,28.320,69.824
1642305319.910,14.160,24.414,36.133,18.066,58.594
1642305319.914,21.484,23.438,33.691,16.602,-28.809
1642305319.918,18.555,22.461,35.645,28.320,-9.277
1642305319.922,14.160,22.461,37.598,35.156,14.160
1642305319.925,16.113,21.484,32.227,31.738,32.715
1642305319.929,20.996,22.461,37.109,20.020,31.738
1642305319.933,18.066,23.438,44.434,17.578,-1.953
1642305319.937,15.137,20.996,39.551,29.297,20.508
1642305319.941,15.137,18.555,40.039,30.762,52.246
1642305319.958,20.508,21.484,41.504,25.879,25.879
1642305319.962,27.832,24.902,39.551,24.902,-1.465
1642305319.966,20.996,24.414,37.598,23.438,12.695
1642305319.970,18.555,22.949,39.551,22.461,86.914
1642305319.974,22.461,23.926,38.086,15.137,93.750
1642305319.978,21.484,27.344,36.621,10.742,41.504
1642305319.982,21.484,25.879,30.273,20.508,28.809
1642305319.985,25.879,23.926,29.785,29.297,34.668
1642305319.989,31.250,24.902,40.527,25.879,73.242
1642305319.993,37.598,25.391,37.598,25.391,22.949
1642305319.997,28.809,29.297,34.180,24.414,-44.922
1642305320.001,9.277,30.762,33.691,14.160,4.883
1642305319.987,5.859,30.762,33.203,6.348,53.711
1642305319.991,18.066,27.832,35.156,10.254,48.828
1642305319.995,21.973,25.879,33.691,15.137,12.695
1642305319.999,20.508,28.320,33.203,23.926,24.902
1642305320.003,20.020,27.344,32.715,33.203,73.730
1642305320.007,19.531,22.949,28.320,18.555,48.340
1642305320.011,25.391,22.461,32.715,14.648,20.508
1642305320.014,27.832,25.879,40.527,31.738,50.293
1642305320.018,24.414,27.832,43.457,30.762,116.699
1642305320.022,31.250,26.855,37.109,21.973,82.520
1642305320.026,33.691,26.367,33.691,19.531,14.160
1642305320.030,22.461,27.344,38.086,20.020,5.371
1642305320.048,21.484,27.344,42.480,27.344,63.965
1642305320.052,24.414,26.855,37.598,25.879,84.473
1642305320.056,27.344,27.344,33.691,13.672,1.465
1642305320.060,21.973,26.367,36.133,16.602,-5.371
1642305320.064,19.043,26.367,37.109,27.832,50.781
1642305320.068,22.949,26.855,31.250,26.855,26.367
1642305320.072,30.273,27.344,33.203,18.555,33.691
1642305320.075,38.086,29.785,41.504,18.555,14.160
1642305320.079,29.785,28.320,42.480,22.461,8.301
1642305320.083,22.949,28.320,41.016,27.832,37.598
1642305320.087,30.762,29.785,44.922,30.273,4.395
1642305320.091,31.738,29.297,46.387,21.484,15.625
1642305320.092,27.832,26.855,40.039,21.973,31.250
1642305320.096,27.344,28.320,41.504,26.367,66.406
1642305320.100,26.855,28.809,43.457,24.902,101.074
1642305320.104,29.785,25.391,42.969,27.832,61.035
1642305320.108,27.344,25.879,38.086,33.691,10.742
1642305320.112,24.902,28.809,34.180,27.344,16.113
1642305320.116,21.484,29.785,34.180,16.602,8.789
1642305320.119,22.461,29.297,39.062,16.113,-10.254
1642305320.123,22.461,28.809,41.016,18.066,10.254
1642305320.127,20.508,30.273,37.598,26.367,36.133
1642305320.131,22.461,28.809,41.016,35.645,43.457
1642305320.135,25.391,25.879,45.410,28.320,5.859
1642305320.138,26.367,24.414,40.527,22.949,-33.203
1642305320.142,23.926,21.973,39.062,29.785,20.508
1642305320.146,19.531,22.949,45.898,31.738,84.961
1642305320.150,19.531,24.902,41.504,23.438,53.711
1642305320.154,20.020,24.902,33.691,22.949,7.324
1642305320.158,11.719,23.926,37.109,29.785,42.969
1642305320.162,16.602,26.855,41.992,33.691,98.145
1642305320.165,24.414,27.344,41.504,22.949,56.641
1642305320.169,26.367,24.414,32.715,12.207,-20.020
1642305320.173,22.949,22.949,36.133,22.461,42.969
1642305320.177,23.438,23.438,43.945,38.574,83.008
1642305320.181,25.879,25.391,39.062,33.203,49.805
1642305320.184,29.785,26.367,36.133,33.203,57.617
1642305320.188,28.809,26.367,35.645,34.180,29.785
1642305320.192,29.297,29.785,38.574,21.973,46.387
1642305320.196,32.227,32.715,37.109,22.949,98.633
1642305320.200,33.203,30.762,31.738,19.043,11.230
1642305320.204,32.715,29.297,34.668,17.578,-34.180
1642305320.208,28.320,28.809,39.062,25.391,61.035
1642305320.211,23.438,26.367,37.109,29.297,84.473
1642305320.215,23.926,24.414,31.738,26.855,9.277
1642305320.219,25.391,27.344,37.109,18.066,-7.812
1642305320.223,17.578,29.297,40.039,18.555,48.340
1642305320.227,15.137,28.809,29.785,28.809,56.641
1642305320.228,20.508,26.367,27.832,26.367,18.555
1642305320.232,26.367,26.855,34.180,22.461,7.324
1642305320.236,24.414,31.250,33.691,24.902,16.602
1642305320.240,20.996,30.762,32.715,32.227,11.719
1642305320.244,23.438,24.902,35.645,34.668,49.805
1642305320.248,31.738,26.367,38.574,22.461,69.336
1642305320.252,33.691,27.832,35.156,13.672,61.035
1642305320.255,28.320,24.902,30.273,18.555,53.223
1642305320.259,30.762,23.926,25.879,21.973,35.156
1642305320.263,32.227,24.414,32.227,15.625,-1.465
1642305320.267,33.691,27.344,35.156,21.973,7.324
1642305320.271,30.273,24.902,33.691,22.461,47.852
1642305320.273,23.438,20.508,38.574,9.766,67.383
1642305320.277,24.902,21.973,37.109,8.789,33.203
1642305320.281,25.391,22.949,37.598,17.090,-6.348
1642305320.285,16.602,22.461,38.574,23.438,34.180
1642305320.289,13.184,22.461,36.621,28.809,68.848
1642305320.293,16.602,21.484,32.715,23.926,24.902
1642305320.297,24.902,24.414,33.691,22.461,1.465
1642305320.300,21.484,29.297,32.227,28.320,9.277
1642305320.304,18.066,26.367,37.109,35.156,31.738
1642305320.308,22.461,22.461,45.410,30.762,41.992
1642305320.312,25.391,20.996,41.992,19.531,32.715
1642305320.316,25.879,19.531,42.480,24.414,35.645
1642305320.317,23.926,21.973,43.945,34.668,41.504
1642305320.321,20.020,24.902,44.434,28.320,62.988
1642305320.325,25.391,24.414,41.016,21.973,42.480
1642305320.329,29.297,25.391,39.062,22.949,-8.789
1642305320.333,22.949,24.902,43.945,21.973,25.391
1642305320.337,23.438,25.879,42.969,28.809,90.820
1642305320.341,22.461,25.879,39.551,23.438,42.480
1642305320.344,24.414,23.926,39.062,15.625,0.977
1642305320.348,20.508,24.902,47.852,20.020,27.832
1642305320.352,17.090,25.879,44.434,29.297,47.852
1642305320.356,20.020,25.391,36.133,31.738,21.973
1642305320.360,20.020,20.996,42.480,24.414,-31.738
1642305320.364,14.160,22.461,45.410,29.297,-11.719
1642305320.368,11.719,25.879,44.434,33.203,66.406
1642305320.372,14.648,25.391,40.039,15.625,77.637
1642305320.376,19.043,27.832,37.109,7.324,-6.348
1642305320.380,20.996,29.297,39.062,11.719,-40.039
1642305320.384,19.531,26.367,40.527,17.578,12.695
1642305320.388,21.484,24.902,36.133,20.020,75.195
1642305320.391,23.438,27.344,31.738,13.672,35.645
1642305320.395,23.438,25.391,35.156,13.184,-44.434
1642305320.399,16.602,22.949,37.109,20.508,-26.855
1642305320.403,23.438,24.414,39.551,42.969,59.570
1642305320.407,31.738,27.832,36.621,38.574,44.922
1642305320.409,28.320,30.762,30.273,12.695,-14.648
1642305320.413,28.809,28.320,25.879,16.602,19.043
1642305320.417,26.367,25.391,27.832,27.832,71.777
1642305320.421,24.414,27.344,31.250,22.461,55.176
1642305320.425,33.691,29.297,30.273,18.555,8.301
1642305320.429,35.156,30.273,26.855,29.785,11.230
1642305320.433,29.297,28.809,27.832,38.086,57.617
1642305320.436,29.297,29.297,34.668,31.250,35.645
1642305320.440,32.715,32.227,38.574,20.996,2.441
1642305320.444,32.715,27.832,38.086,10.254,9.277
1642305320.448,29.785,29.785,35.645,14.160,27.344
1642305320.452,28.320,30.273,37.109,21.973,85.449
1642305320.468,25.879,26.367,36.621,14.160,90.820
1642305320.472,30.762,30.273,32.227,10.742,-12.207
1642305320.476,33.691,32.227,35.645,25.879,0.488
1642305320.480,30.762,28.320,39.062,38.086,64.941
1642305320.484,30.762,29.297,37.598,35.156,50.781
1642305320.488,37.109,31.738,33.203,30.273,20.508
1642305320.492,37.598,32.715,33.691,25.391,-19.531
1642305320.495,33.691,33.203,43.945,26.367,27.344
1642305320.499,33.691,30.273,41.016,29.785,36.621
1642305320.503,40.527,28.809,34.180,23.926,-0.977
1642305320.507,40.527,28.320,38.086,26.855,11.230
1642305320.511,29.297,26.855,40.039,36.621,29.297
1642305320.514,27.832,26.367,32.227,35.156,52.246
1642305320.518,31.738,27.832,28.320,26.855,20.020
1642305320.522,30.273,28.809,32.227,18.066,3.418
1642305320.526,31.250,27.344,35.156,35.645,58.594
1642305320.530,29.785,27.344,31.738,39.062,69.824
1642305320.534,24.902,29.785,29.297,19.043,24.902
1642305320.538,26.855,27.344,30.273,13.184,-36.133
1642305320.541,22.949,26.367,30.762,17.578,-15.137
1642305320.545,21.484,28.809,31.250,30.273,35.156
1642305320.549,23.438,28.809,26.367,25.391,17.090
1642305320.553,26.367,28.809,33.691,20.996,-7.324
1642305320.557,27.832,28.320,35.645,37.109,5.371
1642305320.559,25.879,28.809,32.715,48.340,48.828
1642305320.563,21.484,26.855,31.250,27.832,74.219
1642305320.567,22.949,27.832,26.367,11.719,26.367
1642305320.571,22.461,26.855,24.414,17.578,-28.320
1642305320.575,19.531,27.832,26.367,25.879,45.410
1642305320.579,20.996,27.832,27.344,28.320,88.867
1642305320.583,28.809,25.391,24.902,21.973,16.113
1642305320.586,33.203,25.879,26.367,24.414,-18.555
1642305320.590,20.996,28.320,25.879,30.273,22.461
1642305320.594,17.090,27.832,27.344,34.180,58.594
1642305320.598,24.902,26.855,30.762,30.273,25.391
1642305320.602,29.297,29.297,29.297,20.508,-37.598
1642305320.603,27.344,29.297,26.855,21.484,-42.969
1642305320.607,24.414,27.344,35.156,32.715,45.410
1642305320.611,18.066,25.879,34.668,28.809,86.426
1642305320.615,19.531,24.414,25.879,20.020,6.836
1642305320.619,18.066,22.461,26.855,19.043,-19.043
1642305320.623,12.207,24.414,30.273,23.926,38.574
1642305320.627,19.531,24.902,33.203,31.250,82.520
1642305320.630,25.879,22.461,32.227,28.809,50.781
1642305320.634,23.926,23.438,31.250,28.809,-44.434
1642305320.638,22.949,25.391,40.039,39.551,-15.137
1642305320.642,25.879,24.902,41.016,35.645,69.336
1642305320.646,24.414,20.508,36.133,16.602,33.203
1642305320.649,26.855,20.508,36.133,16.113,-9.277
1642305320.653,23.438,25.879,38.086,24.902,11.230
1642305320.657,18.066,24.902,36.621,29.297,61.523
1642305320.661,20.508,24.902,35.156,27.344,48.340
1642305320.665,28.809,29.785,37.598,20.020,2.930
1642305320.669,32.227,29.785,34.668,29.297,8.301
1642305320.673,29.297,28.809,36.621,42.480,29.785
1642305320.676,24.902,26.367,39.551,33.203,73.730
1642305320.680,30.273,24.902,40.527,28.809,51.270
1642305320.684,34.180,25.391,43.457,33.203,6.836
1642305320.688,28.809,25.391,40.527,34.180,28.809
1642305320.692,30.762,25.391,35.156,33.203,54.199
1642305320.693,35.645,24.902,38.574,26.855,40.527
1642305320.697,30.762,23.926,45.898,22.949,98.633
1642305320.701,27.344,26.367,39.551,34.180,100.098
1642305320.705,30.273,29.785,37.598,39.062,46.875
1642305320.709,27.832,28.320,40.039,24.902,56.152
1642305320.713,33.691,25.879,33.691,24.902,20.996
1642305320.717,32.715,25.879,31.738,26.367,2.930
1642305320.720,25.391,25.391,30.273,26.367,45.898
1642305320.724,28.809,24.414,38.574,22.949,51.758
1642305320.728,27.344,25.391,41.992,18.066,-18.555
1642305320.732,19.531,24.902,37.598,28.320,-51.270
1642305320.736,20.996,25.391,44.434,38.086,18.066
1642305320.738,23.926,26.367,44.922,28.809,72.754
1642305320.742,25.391,24.902,38.574,30.273,53.223
1642305320.746,25.391,24.902,37.109,31.738,37.109
1642305320.750,20.508,27.344,36.133,27.832,51.758
1642305320.754,18.066,23.926,37.109,24.902,48.340
1642305320.758,21.973,23.438,35.156,13.184,37.598
1642305320.762,24.414,24.902,24.902,13.672,-0.488
1642305320.765,25.391,25.879,28.809,29.297,9.277
1642305320.769,20.996,27.832,38.574,31.738,40.527
1642305320.773,21.973,28.320,33.691,19.043,-17.090
1642305320.777,29.297,25.879,31.738,14.160,-30.273
1642305320.781,24.902,26.855,33.691,17.578,30.273
1642305320.783,21.973,26.855,33.203,29.297,74.707
1642305320.787,21.484,23.438,29.785,22.949,41.504
1642305320.791,22.461,22.949,35.156,13.184,10.254
1642305320.795,21.973,22.949,41.016,23.438,38.574
1642305320.799,21.484,24.902,36.621,26.855,55.664
1642305320.803,22.461,26.367,30.273,18.066,56.641
1642305320.807,24.414,24.902,30.762,10.742,-6.348
1642305320.810,25.391,23.926,39.062,14.160,-68.848
1642305320.814,19.531,25.391,42.969,21.484,15.137
1642305320.818,16.602,25.879,38.086,20.508,48.340
1642305320.822,18.555,28.320,37.598,12.695,-15.625
1642305320.826,24.414,28.809,44.922,13.672,13.672
1642305320.844,21.973,28.320,41.992,24.414,48.828
1642305320.848,18.066,28.320,38.086,28.320,75.684
1642305320.852,22.949,26.367,40.527,20.996,121.094
1642305320.856,23.926,27.832,40.039,14.648,35.645
1642305320.860,21.484,25.391,36.133,19.531,-14.648
1642305320.864,19.043,24.902,35.156,25.879,33.203
1642305320.868,13.184,25.879,35.645,19.531,57.129
1642305320.871,17.090,21.484,40.527,12.207,36.133
1642305320.875,20.020,22.949,41.016,17.578,27.344
1642305320.879,18.555,26.367,37.109,26.367,35.156
1642305320.883,17.578,26.855,42.969,23.438,52.734
1642305320.887,18.555,26.855,43.457,18.555,37.598
1642305320.889,22.949,23.926,37.109,25.879,-42.969
1642305320.893,20.508,24.902,41.016,27.832,-22.949
1642305320.897,20.020,26.855,49.805,19.043,61.035
1642305320.901,27.344,29.297,45.898,11.230,55.664
1642305320.905,32.227,32.227,38.086,8.301,11.719
1642305320.909,20.508,28.809,34.180,9.766,-12.207
1642305320.913,15.625,26.367,40.039,18.066,20.020
1642305320.916,22.461,29.785,43.945,22.461,64.453
1642305320.920,27.344,29.297,32.715,15.137,32.227
1642305320.924,18.066,25.879,34.180,10.742,34.668
1642305320.928,17.090,25.391,42.969,26.367,85.938
1642305320.932,26.855,25.879,37.109,34.180,29.785
1642305320.933,26.855,27.832,38.086,28.809,-27.832
1642305320.937,24.902,28.809,40.039,33.203,-29.297
1642305320.941,24.902,28.809,38.574,37.109,11.230
1642305320.945,24.902,27.344,38.086,34.668,43.457
1642305320.949,29.785,25.391,39.551,28.809,22.949
1642305320.953,32.227,22.949,41.992,29.785,29.297
1642305320.957,29.297,27.344,42.969,38.574,21.484
1642305320.960,30.273,31.250,42.480,41.504,33.203
1642305320.964,32.715,29.297,37.109,26.855,11.719
1642305320.968,33.203,28.320,39.551,19.043,-19.531
1642305320.972,31.250,27.344,45.898,29.785,-2.930
1642305320.976,37.109,26.367,39.551,38.574,40.527
1642305320.978,40.039,26.367,39.551,33.203,67.871
1642305320.982,36.621,29.297,41.992,30.762,-27.832
1642305320.986,31.250,34.180,39.551,30.762,2.441
1642305320.990,28.320,28.809,39.551,31.738,71.777
1642305320.994,33.691,27.832,40.527,36.133,42.969
1642305320.998,40.039,29.297,38.086,26.367,47.852
1642305321.002,35.645,22.461,39.062,18.555,-2.930
1642305321.005,28.320,26.855,37.598,29.297,-8.789
1642305321.009,22.461,35.156,30.273,29.297,61.035
1642305321.013,21.973,37.109,38.574,20.996,75.684
1642305321.017,26.367,34.180,41.992,24.414,85.938
1642305321.021,23.926,32.227,40.039,33.691,85.938
1642305321.023,25.879,34.180,41.016,43.457,69.824
1642305321.027,30.273,35.156,39.062,31.250,28.809
1642305321.031,30.273,33.203,37.598,20.996,1.465
1642305321.035,27.832,34.180,35.156,21.973,44.434
1642305321.039,25.391,30.273,35.156,25.391,56.641
1642305321.043,21.973,25.879,32.715,22.949,14.648
1642305321.047,25.879,28.809,29.785,18.555,-3.906
1642305321.050,27.832,26.367,27.344,24.414,-20.996
1642305321.054,22.949,23.926,33.691,23.926,-0.488
1642305321.058,20.996,27.832,39.062,15.137,45.410
1642305321.062,25.391,30.273,34.180,7.812,34.180
1642305321.066,24.902,30.273,30.762,9.277,44.922
1642305321.068,21.484,32.227,35.156,15.137,49.316
1642305321.072,23.926,32.227,40.039,18.555,74.219
1642305321.076,29.297,31.250,33.691,17.090,48.828
1642305321.080,27.832,30.762,31.250,11.230,-11.230
1642305321.084,16.602,31.738,35.156,12.695,25.879
1642305321.088,12.695,31.738,31.738,17.578,61.035
1642305321.092,15.625,30.762,28.320,16.113,37.109
1642305321.095,14.160,22.461,31.250,5.371,-9.766
1642305321.099,15.625,20.020,43.945,8.301,41.016
1642305321.103,20.996,24.902,41.992,27.832,90.820
1642305321.107,18.066,26.367,35.645,25.391,30.762
1642305321.111,20.020,34.180,29.785,8.789,16.113
1642305321.114,1.953,24.902,33.691,-15.137,61.523
1642305321.118,4.395,25.391,45.898,-4.395,54.199
1642305321.122,27.344,39.062,37.598,23.438,47.852
1642305321.126,23.926,34.180,38.086,14.160,63.477
1642305321.130,15.625,32.227,42.969,10.742,54.688
1642305321.134,10.254,38.086,44.434,20.508,43.945
1642305321.138,-4.395,39.551,38.574,7.324,36.133
1642305321.141,-3.906,40.527,43.945,-2.441,-0.488
1642305321.145,4.883,42.969,56.641,-4.395,7.812
1642305321.149,-10.742,41.016,48.340,-9.766,12.207
1642305321.153,-13.672,42.480,50.293,2.441,19.531
1642305321.157,-16.113,44.922,53.711,-7.812,50.293
1642305321.159,-25.879,47.363,52.246,-37.598,26.855
1642305321.163,-35.156,48.828,51.758,-46.875,57.129
1642305321.167,-43.457,50.293,51.758,-38.086,83.008
1642305321.171,-51.758,49.805,57.129,-45.898,49.805
1642305321.175,-49.805,48.828,61.523,-63.965,-3.418
1642305321.179,-41.016,42.969,53.223,-52.734,-4.883
1642305321.183,-35.156,37.598,43.945,-35.645,29.785
1642305321.186,-29.297,36.621,54.688,-28.809,62.988
1642305321.190,-22.949,34.180,55.664,-24.902,8.301
1642305321.194,-19.531,30.273,48.828,-13.184,-4.883
1642305321.198,-22.949,27.344,49.316,-6.348,57.129
1642305321.202,-12.207,24.902,48.340,6.348,46.387
1642305321.218,5.859,21.973,46.875,21.484,64.941
1642305321.222,19.043,25.391,41.992,21.973,40.039
1642305321.226,23.438,26.367,40.527,23.438,-4.395
1642305321.230,25.391,24.414,43.945,31.738,30.273
1642305321.234,29.297,24.414,39.551,36.133,46.875
1642305321.238,36.621,20.020,32.227,33.203,-20.020
1642305321.242,43.945,17.090,33.691,40.527,-20.996
1642305321.245,44.922,17.578,37.598,51.758,49.805
1642305321.249,42.969,17.090,34.668,53.711,38.574
1642305321.253,45.410,18.555,23.926,53.223,10.742
1642305321.257,44.922,21.973,25.879,45.410,21.973
1642305321.261,49.805,23.438,31.250,45.898,75.195
1642305321.262,53.711,25.391,23.438,58.105,79.590
1642305321.266,55.664,24.414,23.926,53.711,7.812
1642305321.270,59.570,24.902,27.832,43.945,15.625
1642305321.274,52.734,25.879,28.809,49.805,44.434
1642305321.278,49.316,20.996,26.855,62.500,83.496
1642305321.282,55.664,20.996,21.973,60.547,49.805
1642305321.286,57.617,20.508,27.832,46.387,16.602
1642305321.289,53.711,20.020,34.180,55.664,-5.371
1642305321.293,58.594,20.996,27.344,69.824,3.906
1642305321.297,62.500,20.996,20.020,58.105,60.059
1642305321.301,63.477,19.531,29.297,47.852,36.621
1642305321.305,59.570,20.508,33.203,56.641,20.996
1642305321.308,51.758,20.508,32.715,62.500,72.266
1642305321.312,51.270,15.625,30.762,64.453,71.777
1642305321.316,54.688,19.531,25.391,57.617,6.348
1642305321.320,54.688,21.973,26.855,46.387,-2.930
1642305321.324,53.223,17.578,27.344,55.176,1.953
1642305321.328,52.734,19.531,25.391,54.688,0.977
1642305321.332,52.734,21.484,29.785,47.363,-15.137
1642305321.335,52.246,20.996,31.250,47.363,-14.160
1642305321.339,40.039,21.484,23.926,39.551,-10.254
1642305321.343,39.551,23.438,30.273,45.410,33.203
1642305321.347,46.387,24.414,35.156,46.387,43.945
1642305321.351,45.898,24.414,26.367,35.156,17.578
1642305321.354,41.992,23.438,28.320,32.227,48.340
1642305321.358,40.039,20.508,34.668,40.039,74.707
1642305321.362,34.668,22.949,33.203,41.992,48.340
1642305321.366,37.598,26.367,28.320,36.621,10.742
1642305321.370,39.062,27.344,28.809,38.574,17.090
1642305321.374,29.785,27.344,34.668,42.480,32.715
1642305321.378,24.902,24.902,38.574,39.551,37.109
1642305321.381,34.668,23.926,35.156,34.180,-4.883
1642305321.385,40.039,25.879,33.691,31.738,-63.477
1642305321.389,33.691,27.344,41.992,45.898,26.855
1642305321.393,32.227,27.832,37.109,46.387,60.059
1642305321.397,36.621,25.879,32.227,31.738,25.391
1642305321.398,39.551,25.391,35.645,35.156,28.320
1642305321.402,36.133,27.344,39.062,39.551,49.316
1642305321.406,33.691,29.297,35.156,41.504,121.582
1642305321.410,32.227,23.926,29.297,25.879,45.410
1642305321.414,38.086,20.508,36.133,17.578,-17.090
1642305321.418,36.621,23.438,37.598,28.320,25.391
1642305321.422,33.203,26.855,38.086,36.133,43.457
1642305321.425,38.086,28.320,36.133,34.180,16.602
1642305321.429,41.016,27.832,37.598,26.855,-10.742
1642305321.433,39.062,30.273,45.410,34.668,4.883
1642305321.437,32.715,30.273,42.969,36.133,44.922
1642305321.441,32.227,25.879,40.039,26.367,71.289
1642305321.444,39.062,25.391,39.062,18.555,51.758
1642305321.448,34.668,27.344,37.109,19.531,11.719
1642305321.452,27.832,25.391,39.551,30.762,11.230
1642305321.456,30.762,24.902,40.527,41.016,38.086
1642305321.460,32.227,28.320,41.992,30.762,39.062
1642305321.464,27.344,28.320,42.480,23.926,57.617
1642305321.468,25.391,27.832,38.086,30.762,17.578
1642305321.471,29.297,28.320,36.621,34.668,28.320
1642305321.475,30.273,30.273,40.527,23.438,26.855
1642305321.479,32.715,30.273,43.945,17.090,28.320
1642305321.483,27.344,29.297,42.480,24.414,28.320
1642305321.487,23.926,28.809,41.992,30.762,27.832
1642305321.489,27.832,25.391,41.992,27.832,59.570
1642305321.493,35.156,27.344,40.039,22.949,36.621
1642305321.497,30.762,31.738,36.621,20.508,15.137
1642305321.501,23.926,30.273,39.062,23.926,23.926
1642305321.505,28.320,30.762,38.086,30.762,79.590
1642305321.509,36.133,32.227,30.273,24.902,57.129
1642305321.513,38.086,31.250,28.809,21.973,-22.949
1642305321.516,30.762,30.273,37.109,30.273,-2.930
1642305321.520,29.297,27.832,44.434,34.668,57.129
1642305321.524,27.832,27.344,41.504,26.855,46.875
1642305321.528,33.203,26.855,40.039,27.832,25.391
1642305321.532,34.668,26.367,44.922,39.062,52.246
1642305321.533,27.832,25.391,45.410,37.109,93.750
1642305321.537,26.855,27.344,37.109,27.832,57.129
1642305321.541,30.762,27.832,35.156,22.461,25.879
1642305321.545,26.367,24.902,38.086,23.926,23.926
1642305321.549,23.438,27.832,35.156,33.691,28.809
1642305321.553,24.902,28.809,27.832,33.203,29.297
1642305321.557,29.785,26.855,28.320,27.344,-9.766
1642305321.560,29.785,26.367,39.062,23.926,7.812
1642305321.564,29.785,24.414,41.016,36.621,59.570
1642305321.568,35.645,23.926,36.621,49.805,75.195
1642305321.572,35.156,22.949,33.203,37.598,14.648
1642305321.576,28.809,24.414,32.227,28.320,-59.082
1642305321.593,16.113,27.344,33.203,23.926,6.348
1642305321.597,21.484,27.832,29.297,18.555,65.430
1642305321.601,28.320,26.855,25.879,14.160,18.555
1642305321.605,26.855,24.902,26.367,10.742,-14.160
1642305321.609,27.344,25.879,26.855,23.926,-35.645
1642305321.613,25.879,24.414,26.855,39.062,10.742
1642305321.617,27.832,23.438,27.832,34.180,23.438
1642305321.620,32.715,22.461,36.133,25.879,5.371
1642305321.624,31.250,22.949,34.668,27.832,17.578
1642305321.628,28.809,23.926,29.785,41.504,22.949
1642305321.632,26.855,23.926,38.086,46.387,37.598
1642305321.636,29.785,26.367,36.621,29.297,8.301
1642305321.639,34.668,26.855,32.715,24.414,-19.531
1642305321.643,28.809,25.879,35.156,26.855,19.043
1642305321.647,23.438,27.344,31.738,25.391,54.688
1642305321.651,24.902,24.902,33.691,19.043,34.668
1642305321.655,24.902,20.508,31.738,13.184,14.648
1642305321.659,20.996,21.973,27.832,19.531,35.645
1642305321.663,19.531,22.461,36.133,29.297,73.242
1642305321.666,23.926,24.414,39.551,29.297,53.711
1642305321.670,23.926,26.855,32.715,26.367,34.180
1642305321.674,17.090,25.879,30.273,26.367,15.137
1642305321.678,16.602,24.902,43.457,26.855,25.391
1642305321.682,22.461,25.879,41.016,22.461,51.270
1642305321.683,29.297,28.320,34.668,19.531,-26.855
1642305321.687,26.855,26.367,36.621,18.066,-29.785
1642305321.691,22.949,27.344,39.551,24.902,25.879
1642305321.695,26.367,29.297,42.969,28.320,50.781
1642305321.699,30.762,28.809,39.062,16.602,25.879
1642305321.703,32.227,28.809,34.180,14.648,-19.531
1642305321.707,27.832,28.320,33.691,25.391,-4.395
1642305321.710,27.832,28.320,36.621,37.109,45.410
1642305321.714,27.344,26.855,29.785,31.250,30.273
1642305321.718,33.691,26.855,31.738,20.020,1.953
1642305321.722,36.133,30.762,41.504,27.832,-10.254
1642305321.726,32.715,29.297,38.574,35.645,30.273
1642305321.729,32.227,22.949,36.133,29.297,35.645
1642305321.733,37.598,27.344,40.527,26.367,12.695
1642305321.737,35.156,31.250,43.945,30.762,44.922
1642305321.741,25.879,27.832,41.992,33.203,65.430
1642305321.745,27.344,25.879,36.621,27.344,59.082
1642305321.749,32.227,27.832,32.227,22.461,-0.488
1642305321.753,28.320,30.762,39.062,23.438,28.320
1642305321.756,23.926,27.832,35.645,26.367,50.781
1642305321.760,26.855,25.879,30.273,27.832,32.227
1642305321.764,31.250,30.273,40.039,31.738,34.668
1642305321.768,27.832,30.762,39.551,29.297,9.277
1642305321.772,20.020,25.879,33.203,29.297,-8.789
1642305321.774,20.508,24.902,35.156,35.156,38.086
1642305321.778,25.391,26.855,37.109,21.973,40.527
1642305321.782,30.762,27.832,37.598,19.043,19.531
1642305321.786,24.902,28.809,35.156,26.855,41.504
1642305321.790,16.113,30.273,35.645,26.367,67.871
1642305321.794,19.531,31.250,34.668,20.508,48.340
1642305321.798,26.367,33.203,36.133,17.090,-21.973
1642305321.801,21.484,32.227,35.156,16.113,-45.898
1642305321.805,21.484,27.832,36.621,25.391,-15.137
1642305321.809,20.996,28.320,45.410,31.738,19.043
1642305321.813,23.926,31.738,42.969,30.273,50.781
1642305321.817,25.391,31.738,35.156,30.273,11.230
1642305321.818,13.672,28.809,37.109,28.320,-15.137
1642305321.822,15.137,29.297,44.434,27.344,72.754
1642305321.826,18.555,30.273,38.574,13.672,84.473
1642305321.830,15.137,31.250,34.180,3.418,13.184
1642305321.834,12.695,32.227,40.527,11.719,21.973
1642305321.838,19.531,30.762,38.574,24.902,84.961
1642305321.842,24.902,31.250,29.785,24.414,41.016
1642305321.845,23.926,31.738,33.203,18.066,-34.668
1642305321.849,21.484,31.250,41.992,21.973,6.836
1642305321.853,18.066,33.691,40.039,29.785,59.570
1642305321.857,16.113,33.691,33.691,24.902,50.781
1642305321.861,19.531,27.832,33.691,14.160,3.418
1642305321.864,19.043,25.391,40.039,19.043,22.949
1642305321.868,11.230,27.832,35.645,24.414,64.453
1642305321.872,6.348,27.832,31.250,12.207,61.035
1642305321.876,14.648,29.297,36.621,2.930,20.996
1642305321.880,20.996,33.691,38.574,9.766,17.090
1642305321.884,11.230,32.715,36.133,19.043,60.547
1642305321.888,7.812,26.855,32.715,22.461,11.719
1642305321.891,12.695,26.855,32.715,9.766,-44.922
1642305321.895,19.043,27.832,38.086,6.836,-29.297
1642305321.899,16.602,26.855,38.574,16.113,9.766
1642305321.903,14.648,27.344,38.574,20.508,47.363
1642305321.907,22.461,29.297,38.086,20.996,47.852
1642305321.907,28.809,28.320,36.621,18.066,12.695
1642305321.911,22.461,28.320,36.133,17.090,21.484
1642305321.915,16.113,26.855,36.621,19.043,50.781
1642305321.919,21.484,22.461,38.086,23.438,41.992
1642305321.923,18.555,22.461,37.109,18.066,-2.441
1642305321.927,11.719,28.320,35.156,15.625,-7.812
1642305321.931,17.090,29.297,32.227,22.949,59.082
1642305321.934,18.066,26.367,42.969,21.973,97.656
1642305321.938,22.461,27.832,46.387,22.461,41.016
1642305321.942,22.949,27.344,35.645,17.090,-12.207
1642305321.946,19.531,24.414,40.039,21.484,43.457
1642305321.950,22.461,21.973,47.852,36.621,86.426
1642305321.968,21.484,25.391,47.363,36.621,41.016
1642305321.972,20.996,27.832,42.480,19.531,2.441
1642305321.976,17.090,25.879,41.016,8.301,18.066
1642305321.980,18.066,29.297,44.922,20.020,63.477
1642305321.984,20.508,28.320,41.504,20.508,65.430
1642305321.988,20.020,23.438,38.086,13.672,30.273
1642305321.992,17.090,25.391,40.039,17.578,25.879
1642305321.995,18.555,28.320,41.992,26.367,32.227
1642305321.999,23.438,26.367,44.434,40.527,33.691
1642305322.003,22.949,24.414,39.551,35.645,36.621
1642305322.007,17.090,26.855,38.574,13.672,21.484
1642305322.011,10.254,29.297,43.457,17.090,37.109
1642305322.013,10.742,26.855,34.668,21.484,62.988
1642305322.017,15.137,26.855,31.250,6.836,32.715
1642305322.021,21.484,26.367,32.227,3.906,-2.441
1642305322.025,12.695,26.855,30.762,13.184,-14.648
1642305322.029,9.277,28.320,34.668,23.926,2.930
1642305322.033,14.648,25.879,31.250,19.531,10.742
1642305322.037,20.020,24.902,29.785,6.348,6.348
1642305322.040,16.602,26.855,36.133,5.371,0.000
1642305322.044,13.184,27.832,35.645,11.719,9.766
1642305322.048,17.090,27.344,35.645,9.277,13.672
1642305322.052,21.484,24.902,42.480,11.230,-9.766
1642305322.056,18.066,23.926,40.527,20.508,-4.883
1642305322.058,14.648,23.438,37.109,28.320,31.738
1642305322.062,16.602,23.438,38.574,20.020,91.309
1642305322.066,21.973,27.832,36.133,4.395,42.969
1642305322.070,25.391,29.297,36.133,4.395,21.973
1642305322.074,20.996,25.879,36.621,21.484,75.195
1642305322.078,22.461,29.297,33.203,29.297,68.848
1642305322.082,28.809,32.227,35.645,19.531,48.828
1642305322.085,34.180,31.250,38.086,24.902,-25.391
1642305322.089,22.461,32.715,31.250,32.227,-20.508
1642305322.093,7.324,28.809,35.156,32.227,41.016
1642305322.097,7.812,24.902,41.504,23.438,44.922
1642305322.101,13.672,28.809,34.668,11.230,27.832
1642305322.104,10.254,27.832,37.109,15.137,28.320
1642305322.108,7.812,23.438,38.574,27.344,44.434
1642305322.112,14.160,26.367,37.109,28.809,50.293
1642305322.116,20.508,26.367,36.621,20.020,42.480
1642305322.120,25.391,27.832,31.738,17.090,60.059
1642305322.124,26.855,32.227,33.203,23.438,86.426
1642305322.128,26.367,28.320,33.691,24.902,47.363
1642305322.131,29.297,23.926,30.273,24.414,-14.648
1642305322.135,30.273,25.391,33.203,25.391,-60.547
1642305322.139,26.855,25.879,44.922,27.832,-14.160
1642305322.143,20.020,25.391,43.457,24.414,71.289
1642305322.147,20.508,25.879,36.133,20.020,-8.301
1642305322.149,28.809,26.367,35.645,22.461,-16.113
1642305322.153,27.344,30.762,36.133,23.926,60.059
1642305322.157,24.902,31.250,32.715,26.367,45.410
1642305322.161,23.438,29.297,32.227,18.555,38.574
1642305322.165,25.391,27.832,34.180,15.137,50.781
1642305322.169,24.414,26.367,31.250,21.484,31.738
1642305322.173,21.484,27.344,37.598,28.320,77.148
1642305322.176,20.020,23.926,33.691,32.227,98.633
1642305322.180,23.438,23.438,35.645,25.879,55.176
1642305322.184,26.855,25.391,44.434,16.602,60.059
1642305322.188,27.832,27.344,38.086,23.926,57.129
1642305322.192,27.832,31.738,34.668,30.273,55.176
1642305322.223,29.297,28.320,35.156,29.785,40.527
1642305322.227,33.203,25.391,34.180,31.738,16.602
1642305322.231,29.785,29.785,35.156,36.133,-10.742
1642305322.235,27.832,26.367,41.504,40.039,39.062
1642305322.239,24.902,22.461,41.016,33.691,36.133
1642305322.243,26.367,23.926,35.645,32.715,-22.461
1642305322.247,25.879,24.414,33.691,40.527,4.883
1642305322.250,20.020,23.438,32.715,39.551,47.852
1642305322.254,26.855,27.344,43.457,26.855,58.105
1642305322.258,34.668,28.809,43.945,20.996,33.691
1642305322.262,28.809,27.344,36.133,26.367,40.527
1642305322.266,21.484,23.926,37.598,30.762,76.172
1642305322.238,22.949,24.902,34.668,35.156,51.270
1642305322.242,32.715,27.832,31.738,34.668,-6.348
1642305322.246,32.715,24.414,34.180,29.785,-27.832
1642305322.250,29.297,24.414,35.156,36.621,-4.883
1642305322.254,29.785,23.926,33.691,29.785,18.555
1642305322.258,30.273,25.391,27.832,16.602,-10.742
1642305322.262,34.180,28.809,29.297,13.672,-39.551
1642305322.265,30.762,26.855,34.668,20.508,-11.719
1642305322.269,26.855,26.855,36.133,26.855,54.688
1642305322.273,29.785,26.367,33.203,26.367,102.051
1642305322.277,33.203,24.902,30.762,33.203,59.082
1642305322.281,33.691,30.273,35.156,42.480,7.812
1642305322.284,35.645,33.203,41.504,43.457,83.984
1642305322.288,34.668,28.809,37.598,38.574,41.504
1642305322.292,35.156,26.367,29.785,30.762,-0.977
1642305322.296,34.668,26.855,37.598,20.996,38.574
1642305322.300,30.273,25.879,44.434,34.180,26.367
1642305322.304,29.297,24.414,35.645,35.156,27.832
1642305322.308,32.715,27.344,30.762,22.461,-41.992
1642305322.311,31.738,27.344,41.504,29.297,-52.734
1642305322.315,27.832,26.367,44.922,28.320,27.832
1642305322.319,29.297,29.785,37.598,25.391,41.016
1642305322.323,27.344,28.809,35.156,19.531,0.977
1642305322.327,26.367,26.855,41.016,13.672,-7.324
1642305322.344,26.367,27.832,36.621,23.438,-33.691
1642305322.348,27.832,27.832,35.156,38.086,1.953
1642305322.352,31.738,31.250,41.504,26.855,51.758
1642305322.356,37.109,33.203,39.551,13.672,-1.953
1642305322.360,33.203,30.762,36.621,28.809,-19.043
1642305322.364,24.902,29.297,35.156,37.598,73.730
1642305322.368,23.438,24.902,39.551,31.250,58.105
1642305322.371,25.879,25.879,46.387,26.367,11.230
1642305322.375,22.949,26.855,39.062,32.227,22.949
1642305322.379,20.996,23.926,39.551,42.480,54.688
1642305322.383,23.926,26.367,41.992,42.480,77.148
1642305322.387,28.809,24.414,39.551,28.320,58.105
1642305322.389,28.320,23.438,41.992,22.949,104.004
1642305322.393,24.902,25.391,39.062,28.809,70.801
1642305322.397,29.297,24.902,39.551,30.762,12.207
1642305322.401,28.320,25.391,39.062,27.344,12.207
1642305322.405,27.832,23.438,33.691,22.949,42.969
1642305322.409,28.320,21.973,34.668,28.809,49.316
1642305322.413,23.438,23.926,40.039,33.691,70.312
1642305322.416,21.484,23.926,42.969,32.227,62.500
1642305322.420,29.297,23.926,41.016,25.879,16.113
1642305322.424,25.391,26.367,40.527,20.508,10.254
1642305322.428,16.113,25.391,47.363,29.785,83.008
1642305322.432,19.043,24.414,43.457,28.320,88.379
1642305322.433,25.391,25.391,41.016,17.090,21.973
1642305322.437,25.879,27.344,42.969,10.742,24.902
1642305322.441,18.555,28.809,43.457,11.719,28.809
1642305322.445,21.973,27.832,40.039,21.484,7.812
1642305322.449,26.855,27.832,33.203,17.578,11.230
1642305322.453,24.414,29.785,29.785,6.836,9.766
1642305322.457,20.020,32.227,32.227,13.184,31.738
1642305322.460,17.578,31.250,36.621,27.832,72.754
1642305322.464,24.902,31.250,27.344,20.020,44.922
1642305322.468,33.203,33.691,27.832,12.207,8.301
1642305322.472,22.949,30.762,39.551,15.137,30.762
1642305322.476,21.973,31.738,36.621,28.320,31.738
1642305322.478,29.785,33.203,36.133,34.180,1.953
1642305322.482,33.691,32.227,37.109,17.578,-9.766
1642305322.486,36.621,31.250,36.621,20.020,2.441
1642305322.490,35.156,28.809,37.109,29.785,27.344
1642305322.494,33.203,31.250,36.133,22.949,59.082
1642305322.498,31.738,30.762,36.621,14.160,90.332
1642305322.502,29.297,27.832,40.527,12.695,118.164
1642305322.505,20.508,27.832,34.180,19.531,52.734
1642305322.509,15.137,25.879,30.273,22.461,7.812
1642305322.513,21.484,27.344,38.574,22.461,64.453
1642305322.517,23.438,26.855,41.504,21.973,21.484
1642305322.521,15.625,27.344,37.598,25.391,15.137
1642305322.568,14.648,28.320,35.156,26.367,21.973
1642305322.572,18.555,25.879,36.621,21.484,4.395
1642305322.576,20.508,27.344,33.203,22.461,8.301
1642305322.580,14.160,28.809,31.738,23.438,-25.879
1642305322.584,12.207,26.367,34.668,26.855,-3.906
1642305322.588,19.531,24.902,33.691,30.762,29.297
1642305322.592,26.855,26.855,32.715,20.996,0.000
1642305322.595,21.484,26.367,28.809,16.602,2.930
1642305322.599,19.043,22.949,34.180,20.996,25.879
1642305322.603,22.461,24.414,42.969,24.902,45.410
1642305322.607,27.344,28.809,37.598,22.461,45.410
1642305322.611,31.738,27.832,39.062,21.973,21.484
1642305322.572,29.297,22.949,39.062,28.809,9.766
1642305322.576,29.297,23.926,39.062,31.738,44.434
1642305322.580,29.785,25.879,41.992,26.367,16.113
1642305322.584,31.250,22.949,39.551,23.438,-30.762
1642305322.588,27.344,23.438,39.551,28.320,-9.766
1642305322.592,25.879,24.902,40.527,32.227,59.570
1642305322.596,26.855,25.879,37.598,32.227,60.547
1642305322.599,25.879,27.832,35.645,24.414,20.996
1642305322.603,22.949,25.391,41.016,18.555,54.688
1642305322.607,17.578,25.879,44.922,28.320,111.816
1642305322.611,15.625,24.414,38.086,30.273,104.492
1642305322.615,19.531,21.973,40.039,14.648,33.691
1642305322.612,20.996,24.414,44.922,12.207,-38.574
1642305322.616,18.555,21.973,45.410,16.602,9.766
1642305322.620,17.578,20.508,45.898,22.461,34.668
1642305322.624,21.484,24.902,42.969,26.855,-2.441
1642305322.628,22.949,26.855,41.992,16.113,13.184
1642305322.632,16.602,26.367,39.062,12.207,-10.742
1642305322.636,17.578,25.391,33.691,13.184,-4.883
1642305322.639,22.461,24.902,28.809,9.766,18.555
1642305322.643,25.879,23.438,40.527,13.672,9.277
1642305322.647,19.043,23.926,43.945,18.066,11.719
1642305322.651,14.648,26.367,39.551,25.879,49.316
1642305322.655,21.973,25.879,41.992,20.020,39.062
1642305322.658,25.391,24.902,39.551,12.695,11.230
1642305322.662,20.508,27.344,34.180,20.020,20.020
1642305322.666,13.672,28.320,35.645,22.949,38.574
1642305322.670,10.254,24.902,38.574,20.508,59.570
1642305322.674,15.137,22.461,34.668,17.090,0.977
1642305322.678,15.625,23.926,30.273,20.996,31.738
1642305322.682,13.184,24.414,31.250,32.715,93.750
1642305322.685,18.555,25.879,41.016,32.715,75.195
1642305322.689,21.484,27.832,38.574,31.250,49.805
1642305322.693,21.973,26.855,30.762,31.250,13.672
1642305322.697,21.484,27.832,29.297,30.273,7.812
1642305322.701,21.973,30.273,37.598,31.250,52.734
1642305322.718,23.926,29.297,37.109,20.020,38.574
1642305322.722,28.809,26.367,35.156,13.184,22.949
1642305322.726,26.855,24.414,37.109,19.531,53.223
1642305322.730,25.391,24.902,33.691,28.320,81.543
1642305322.734,29.785,25.391,27.344,23.926,17.578
1642305322.738,31.738,24.902,29.297,17.578,-7.812
1642305322.742,33.203,25.879,37.109,20.508,27.344
1642305322.745,33.691,26.367,40.527,28.320,39.551
1642305322.749,32.715,25.879,35.156,32.227,36.621
1642305322.753,27.344,25.391,24.902,22.461,-16.602
1642305322.757,28.809,27.344,31.250,24.902,-22.461
1642305322.761,29.297,31.250,42.480,37.598,51.758
1642305322.763,26.367,28.809,38.086,34.668,102.539
1642305322.767,30.762,24.902,33.691,23.438,55.176
1642305322.771,34.668,26.367,34.668,24.902,-13.672
1642305322.775,30.762,29.785,37.109,33.691,-1.465
1642305322.779,27.344,27.832,40.039,38.086,53.711
1642305322.783,29.297,25.391,37.598,36.133,-3.418
1642305322.787,33.691,31.250,38.086,32.227,-23.926
1642305322.790,31.250,32.227,42.480,37.598,24.414
