timestamps,TP9,AF7,AF8,TP10,Right AUX
1637884644.806,34.668,30.273,31.738,46.387,322.266
1637884644.810,13.184,31.738,26.367,-0.488,-286.621
1637884644.814,12.207,24.414,22.949,-2.930,-394.043
1637884644.818,35.645,20.020,26.367,41.016,214.844
1637884644.822,44.434,25.879,28.809,52.246,443.359
1637884644.826,23.438,33.203,28.809,13.184,-171.875
1637884644.830,5.371,26.367,32.227,-11.719,-407.715
1637884644.833,26.855,22.949,32.227,16.602,75.684
1637884644.837,43.945,28.809,28.809,44.434,520.508
1637884644.841,25.879,27.344,32.715,17.090,13.672
1637884644.845,9.277,25.391,31.250,-7.812,-354.980
1637884644.849,26.855,29.297,26.855,16.113,-107.910
1637884644.900,55.664,26.855,31.738,53.711,501.465
1637884644.904,39.062,28.320,30.762,32.227,238.281
1637884644.908,16.113,28.320,23.438,-2.441,-292.480
1637884644.912,24.902,24.902,27.832,9.277,-291.504
1637884644.916,48.340,24.902,31.250,46.387,340.332
1637884644.920,42.480,29.297,27.344,42.480,397.949
1637884644.924,19.531,30.762,31.738,4.395,-201.172
1637884644.927,15.625,26.367,32.227,-11.230,-374.023
1637884644.931,41.992,22.949,27.832,31.738,194.824
1637884644.935,48.340,24.902,26.367,54.199,526.367
1637884644.939,19.043,29.785,23.926,15.137,-102.539
1637884644.943,3.418,27.344,25.391,-9.766,-415.527
1637884644.920,27.832,25.391,28.320,24.902,-19.043
1637884644.924,48.828,29.785,28.809,59.570,520.996
1637884644.928,32.715,36.133,28.320,29.785,132.324
1637884644.932,16.113,30.762,27.832,-6.836,-354.004
1637884644.936,24.414,23.438,24.902,8.301,-241.699
1637884644.940,42.969,25.391,18.555,42.969,417.969
1637884644.944,30.762,25.391,21.484,23.926,263.184
1637884644.947,9.766,25.879,21.973,-5.859,-280.273
1637884644.951,13.184,26.855,23.926,-1.465,-279.785
1637884644.955,41.992,27.832,27.832,37.598,328.613
1637884644.959,43.457,30.762,23.926,48.340,439.453
1637884644.963,16.602,26.855,22.461,5.371,-127.930
1637884644.974,13.184,23.926,22.949,-15.137,-336.914
1637884644.978,36.133,26.367,23.438,23.438,124.512
1637884644.982,43.457,27.344,24.902,47.852,517.090
1637884644.986,18.066,29.785,23.438,11.719,-52.734
1637884644.990,3.418,27.344,23.926,-7.812,-421.875
1637884644.994,24.902,23.926,21.973,23.438,-90.820
1637884644.998,46.387,26.855,20.508,47.363,476.562
1637884645.001,30.762,30.273,21.973,20.508,86.426
1637884645.005,12.695,28.809,21.973,-6.836,-368.652
1637884645.009,22.461,25.391,21.973,14.648,-212.402
1637884645.013,52.246,25.391,27.344,55.176,404.785
1637884645.017,44.922,27.344,34.180,38.574,306.152
1637884645.012,15.137,25.391,26.855,1.465,-220.215
1637884645.016,14.648,23.926,22.461,5.859,-332.520
1637884645.020,39.062,22.461,26.855,44.922,209.961
1637884645.024,43.457,26.367,25.391,41.016,444.824
1637884645.028,24.414,29.297,20.996,-4.883,-145.996
1637884645.032,12.207,23.926,27.344,-15.137,-408.691
1637884645.036,31.738,22.949,28.809,26.855,51.758
1637884645.039,48.828,25.391,20.508,54.688,497.070
1637884645.043,24.414,28.320,21.484,20.996,-8.301
1637884645.047,3.906,28.320,22.949,-10.742,-397.461
1637884645.051,23.926,24.414,25.879,19.531,-130.859
1637884645.055,46.387,22.949,31.738,57.129,468.750
1637884645.049,28.809,26.367,26.855,32.227,200.684
1637884645.053,13.672,29.785,23.926,-2.441,-296.387
1637884645.057,21.973,28.320,30.762,4.395,-286.133
1637884645.061,39.062,23.438,30.762,45.410,363.281
1637884645.065,33.691,24.414,24.902,43.945,390.625
1637884645.069,17.578,25.879,24.414,7.324,-235.840
1637884645.073,17.578,24.902,24.414,6.348,-379.883
1637884645.076,43.457,24.414,28.809,50.293,235.840
1637884645.080,50.293,25.391,29.785,58.105,498.535
1637884645.084,27.344,22.949,23.926,18.555,-89.844
1637884645.088,12.695,21.973,26.367,-0.977,-458.984
1637884645.092,26.855,19.531,29.297,29.785,-53.223
1637884645.087,42.480,20.996,32.227,57.129,528.809
1637884645.091,24.902,25.879,28.809,25.391,39.551
1637884645.095,5.859,27.344,25.391,-6.836,-404.297
1637884645.099,20.020,24.414,27.344,16.602,-151.855
1637884645.103,48.340,21.484,28.809,60.547,478.027
1637884645.107,35.645,23.926,23.926,41.504,221.191
1637884645.111,7.324,24.902,21.484,-3.906,-345.215
1637884645.114,10.254,21.484,22.949,-5.859,-304.688
1637884645.118,39.062,19.043,26.367,37.598,323.730
1637884645.122,39.062,21.484,27.344,39.062,344.727
1637884645.126,18.066,29.297,27.832,1.465,-210.938
1637884645.130,9.277,26.367,23.926,-6.836,-342.285
1637884645.143,33.203,22.949,22.461,46.387,189.941
1637884645.147,41.992,23.438,28.320,60.547,513.184
1637884645.151,20.020,24.902,25.391,4.883,-52.734
1637884645.155,18.555,29.785,26.855,-11.230,-349.609
1637884645.159,34.180,27.344,29.297,31.250,-17.090
1637884645.163,48.340,25.391,28.320,62.500,495.117
1637884645.167,23.926,24.414,26.367,20.996,101.074
1637884645.170,1.465,23.438,27.344,-10.254,-346.191
1637884645.174,21.973,21.973,29.297,17.578,-212.402
1637884645.178,45.410,21.973,32.715,55.664,420.410
1637884645.182,33.203,27.832,30.762,37.598,250.000
1637884645.186,20.020,29.297,23.438,-2.930,-311.523
1637884645.181,22.949,24.414,24.414,4.395,-292.480
1637884645.185,41.992,23.438,25.391,49.316,330.566
1637884645.189,35.645,30.762,19.531,41.992,460.449
1637884645.193,-4.883,30.762,14.160,-8.301,-150.879
1637884645.197,-13.184,27.344,15.625,-24.414,-363.770
1637884645.201,30.762,27.832,31.250,24.414,99.121
1637884645.205,52.246,34.668,32.715,56.641,499.023
1637884645.208,19.531,35.645,16.113,18.555,-41.016
1637884645.212,-3.906,32.227,15.625,-19.531,-398.438
1637884645.216,21.973,28.320,25.391,0.977,-58.594
1637884645.220,16.602,16.602,25.391,21.484,494.629
1637884645.224,-16.602,29.785,21.484,-8.301,151.367
1637884645.237,-12.695,40.039,20.020,-24.414,-286.621
1637884645.241,3.418,26.855,17.090,-9.766,-209.473
1637884645.245,27.344,32.227,18.555,35.156,364.258
1637884645.249,13.672,37.598,20.996,22.949,343.750
1637884645.253,-25.391,35.156,19.531,-33.203,-264.160
1637884645.257,-35.645,41.992,13.184,-43.457,-401.367
1637884645.261,-3.906,48.828,14.160,1.465,221.680
1637884645.264,-25.879,37.598,15.137,-17.090,422.363
1637884645.268,-65.918,44.922,13.184,-62.500,-181.641
1637884645.272,-59.570,66.406,14.160,-67.383,-398.438
1637884645.276,-26.367,62.988,16.602,-31.250,49.316
1637884645.280,-22.949,56.152,12.695,-26.367,498.047
1637884645.274,-85.449,56.641,10.254,-87.891,24.414
1637884645.278,-94.727,64.453,21.973,-96.680,-357.422
1637884645.282,-68.848,67.383,19.531,-64.941,-98.633
1637884645.286,-71.777,77.637,3.906,-53.711,479.980
1637884645.290,-75.684,79.590,5.371,-71.289,207.031
1637884645.294,-76.660,80.078,17.090,-92.773,-302.734
1637884645.298,-89.355,83.496,20.996,-86.914,-258.301
1637884645.301,-85.938,87.891,17.578,-59.082,376.953
1637884645.305,-88.379,88.867,15.137,-73.242,362.793
1637884645.309,-105.957,81.055,11.719,-114.746,-240.234
1637884645.313,-104.492,83.008,8.789,-117.188,-383.789
1637884645.317,-98.145,88.867,12.207,-81.055,193.359
1637884645.331,-91.797,94.727,20.996,-59.570,489.746
1637884645.335,-80.566,87.891,23.438,-74.707,-80.078
1637884645.339,-78.125,84.473,18.066,-90.820,-412.109
1637884645.343,-60.547,93.262,19.531,-58.594,-28.809
1637884645.347,-60.059,90.820,22.461,-35.645,479.004
1637884645.351,-93.262,89.844,21.484,-75.195,38.574
1637884645.355,-106.445,95.703,24.902,-105.469,-330.078
1637884645.358,-84.961,85.938,30.273,-68.848,-134.766
1637884645.362,-41.504,75.684,28.320,-21.484,450.684
1637884645.366,-37.598,81.055,23.438,-31.738,258.301
1637884645.370,-68.848,80.566,21.484,-73.730,-263.672
1637884645.374,-77.637,82.520,24.414,-82.031,-296.387
1637884645.368,-48.340,83.496,34.180,-38.086,323.242
1637884645.372,-32.227,78.125,36.133,-24.414,427.734
1637884645.376,-47.363,78.125,28.809,-42.480,-166.016
1637884645.380,-46.875,72.266,28.320,-35.156,-354.004
1637884645.384,-33.691,67.871,29.297,-14.160,142.090
1637884645.388,-34.180,72.754,32.715,-12.207,441.406
1637884645.392,-41.504,71.289,38.086,-43.457,-125.488
1637884645.395,-40.039,65.430,33.203,-54.199,-375.488
1637884645.399,-17.090,61.523,32.227,-9.766,-19.531
1637884645.403,-6.348,58.105,35.645,13.184,494.141
1637884645.407,-26.367,64.941,33.691,-17.578,96.680
1637884645.411,-36.621,73.242,25.879,-47.852,-363.770
1637884645.424,-4.883,62.988,32.715,-17.090,-216.309
1637884645.428,21.973,55.664,39.062,28.320,430.664
1637884645.432,7.812,57.617,35.156,8.301,302.246
1637884645.436,-14.648,55.176,25.391,-17.090,-263.672
1637884645.440,-38.574,56.641,20.996,-32.715,-357.910
1637884645.444,-17.090,60.059,36.621,-7.812,273.926
1637884645.448,5.371,50.781,42.480,14.160,479.004
1637884645.451,-11.230,42.480,37.598,-4.883,-168.945
1637884645.455,-8.301,43.457,32.715,-2.930,-409.180
1637884645.459,27.832,45.410,36.621,39.062,105.469
1637884645.463,27.832,51.270,39.062,38.574,499.023
1637884645.467,-3.418,55.664,40.527,-12.207,-58.594
1637884645.463,-10.254,52.734,41.016,-23.926,-403.320
1637884645.467,10.254,46.875,38.574,15.137,-69.824
1637884645.471,34.180,45.898,37.598,55.176,501.465
1637884645.475,20.508,47.363,35.645,38.574,165.527
1637884645.479,9.766,48.828,34.668,10.742,-342.285
1637884645.483,23.926,50.781,37.598,5.859,-260.742
1637884645.487,28.809,48.828,35.156,21.973,362.793
1637884645.490,12.695,44.434,33.691,16.113,361.328
1637884645.494,6.348,39.062,36.133,-5.371,-195.312
1637884645.498,12.207,39.551,37.598,3.906,-331.055
1637884645.502,30.273,36.621,39.551,48.340,228.027
1637884645.506,35.156,33.691,37.598,54.199,448.242
1637884645.518,16.113,32.715,34.668,27.832,-123.535
1637884645.522,13.672,30.762,34.668,18.066,-431.152
1637884645.526,40.527,32.715,34.668,33.691,32.715
1637884645.530,61.523,37.109,33.203,56.641,499.023
1637884645.534,56.152,30.273,32.227,38.574,-40.527
1637884645.538,39.551,24.414,26.855,22.461,-369.141
1637884645.542,45.898,21.973,26.855,46.875,-121.582
1637884645.545,74.219,17.578,32.715,89.355,440.918
1637884645.549,76.172,17.578,34.180,79.590,227.051
1637884645.553,63.965,12.695,30.762,47.852,-265.137
1637884645.557,77.148,8.789,31.738,62.012,-260.742
1637884645.561,108.887,2.930,34.668,107.422,354.492
1637884645.555,112.305,-0.488,34.668,114.258,348.145
1637884645.559,104.004,-1.953,33.203,81.543,-237.793
1637884645.563,109.375,-5.371,35.156,76.660,-327.148
1637884645.567,139.160,-9.277,37.109,127.441,189.941
1637884645.571,158.203,-14.160,33.691,153.320,488.770
1637884645.575,127.930,-16.602,32.227,118.652,-92.773
1637884645.579,107.422,-14.160,31.250,92.773,-458.496
1637884645.582,128.906,-15.137,32.227,125.000,-38.574
1637884645.586,147.949,-17.578,36.621,157.227,505.371
1637884645.590,127.441,-17.578,34.668,125.000,38.086
1637884645.594,110.840,-20.996,35.156,90.820,-396.484
1637884645.598,129.883,-31.250,36.621,117.676,-201.172
1637884645.612,156.738,-27.832,36.133,162.598,445.801
1637884645.616,145.020,-10.254,37.109,133.301,251.953
1637884645.620,116.699,-8.789,30.762,83.008,-306.152
1637884645.624,123.535,-15.137,27.832,94.238,-296.875
1637884645.628,145.996,-15.625,30.273,136.230,308.105
1637884645.632,132.324,-12.207,29.297,128.906,410.645
1637884645.636,109.375,-11.719,28.809,86.914,-119.629
1637884645.639,104.492,-13.184,28.320,79.102,-355.469
1637884645.643,115.723,-18.555,33.203,112.305,121.094
1637884645.647,121.582,-15.625,34.668,127.441,506.836
1637884645.651,101.074,-11.719,30.762,100.098,-14.648
1637884645.655,82.031,-11.230,33.203,78.613,-334.473
1637884645.649,94.727,-11.719,35.645,101.562,-32.227
1637884645.653,110.840,-8.789,35.156,124.512,512.695
1637884645.657,90.332,-2.441,33.203,88.379,108.398
1637884645.661,69.336,-0.488,35.645,54.199,-368.652
1637884645.665,74.707,-4.883,37.109,80.078,-232.910
1637884645.669,91.309,-3.418,35.156,112.305,396.484
1637884645.673,83.496,-0.488,36.621,78.125,312.012
1637884645.676,60.059,1.465,35.645,39.062,-187.012
1637884645.680,55.176,4.395,35.156,40.039,-298.828
1637884645.684,77.148,6.836,39.062,80.078,205.566
1637884645.688,80.078,8.789,34.668,88.379,441.406
1637884645.692,52.734,2.930,24.902,50.293,-135.254
1637884645.705,40.039,-0.488,28.320,34.180,-432.617
1637884645.709,60.547,4.883,33.691,64.453,44.922
1637884645.713,70.801,9.277,30.273,82.520,508.301
1637884645.717,48.828,9.766,24.902,47.363,-8.301
1637884645.721,34.668,8.301,26.367,16.113,-413.086
1637884645.725,48.340,6.348,31.250,54.199,-131.348
1637884645.729,69.336,11.230,29.785,82.031,476.074
1637884645.732,52.734,16.113,29.785,41.016,101.074
1637884645.736,28.809,15.625,30.762,10.254,-402.832
1637884645.740,39.551,14.648,27.832,25.391,-259.766
1637884645.744,69.824,18.555,33.691,75.195,394.531
1637884645.748,65.918,23.438,37.109,74.707,334.473
1637884645.743,39.551,23.926,22.461,29.785,-276.367
1637884645.747,40.527,18.555,16.602,17.578,-398.438
1637884645.751,65.430,12.207,29.785,55.176,220.215
1637884645.755,67.383,16.602,35.645,64.941,489.746
1637884645.759,46.387,20.508,33.691,35.156,-90.820
1637884645.763,32.227,20.996,31.738,16.602,-345.215
1637884645.767,47.852,19.531,34.668,38.086,56.641
1637884645.770,61.523,21.484,33.691,68.848,546.875
1637884645.774,40.527,24.902,30.762,41.992,49.316
1637884645.778,23.438,22.461,30.273,8.789,-391.602
1637884645.782,38.574,19.531,31.738,33.203,-134.277
1637884645.786,57.129,13.672,31.738,68.359,488.281
1637884645.799,43.457,16.113,30.273,40.039,209.473
1637884645.803,33.691,22.461,29.785,15.625,-336.914
1637884645.807,54.199,21.484,30.762,39.551,-290.527
1637884645.811,66.895,20.996,35.645,66.895,357.910
1637884645.815,42.480,23.926,29.297,33.691,397.949
1637884645.819,26.855,26.855,18.555,1.953,-203.613
1637884645.823,33.691,29.297,19.043,9.277,-390.625
1637884645.826,56.152,20.508,24.414,54.199,139.648
1637884645.830,63.965,18.066,24.902,75.195,501.953
1637884645.834,43.945,26.367,20.508,30.273,-59.082
1637884645.838,32.227,27.832,22.461,0.977,-421.875
1637884645.842,50.293,23.926,26.367,32.227,-62.500
1637884645.837,65.918,21.973,26.367,66.895,515.625
1637884645.841,45.898,24.414,25.391,37.109,55.664
1637884645.845,25.879,21.484,19.043,5.859,-385.254
1637884645.849,38.574,17.578,21.973,28.320,-170.410
1637884645.853,57.129,22.949,28.320,64.941,429.688
1637884645.857,41.992,21.484,20.996,49.805,244.629
1637884645.861,20.996,18.066,14.648,19.043,-302.246
1637884645.864,21.484,21.973,17.090,17.090,-333.008
1637884645.868,49.805,27.832,24.414,52.734,290.527
1637884645.872,56.152,31.738,24.902,55.176,422.363
1637884645.876,30.762,26.367,23.438,12.207,-163.086
1637884645.880,20.508,20.996,26.367,1.953,-389.160
1637884645.893,40.527,20.996,27.832,40.039,114.746
1637884645.897,48.340,22.461,26.855,54.199,507.812
1637884645.901,26.855,22.949,26.855,24.902,-41.504
1637884645.905,16.602,26.367,26.855,6.836,-375.977
1637884645.909,36.133,27.344,24.414,28.809,-52.246
1637884645.913,59.570,28.320,26.855,54.199,505.859
1637884645.917,38.574,31.250,29.297,27.832,166.504
1637884645.920,21.973,29.785,30.273,-0.977,-323.730
1637884645.924,39.062,28.320,33.203,20.996,-230.957
1637884645.928,56.152,21.973,34.180,59.570,434.082
1637884645.932,43.945,20.508,28.809,43.457,333.984
1637884645.936,24.414,24.414,23.438,6.836,-240.723
1637884645.931,25.879,25.391,26.367,9.277,-314.941
1637884645.935,48.340,25.391,31.738,51.270,270.508
1637884645.939,54.688,28.809,33.203,59.082,447.266
1637884645.943,34.668,25.879,33.203,26.855,-119.141
1637884645.947,20.020,22.949,26.855,9.766,-366.699
1637884645.951,35.645,24.902,26.855,31.738,43.945
1637884645.955,49.805,26.855,30.762,48.340,495.605
1637884645.958,32.715,25.879,26.367,16.602,-41.504
1637884645.962,12.207,21.973,26.855,-10.254,-423.828
1637884645.966,28.320,22.461,27.832,21.484,-108.398
1637884645.970,52.734,25.879,26.855,58.105,509.277
1637884645.974,33.691,25.879,27.344,31.738,161.133
1637884645.987,9.766,25.391,23.438,-7.324,-365.234
1637884645.991,13.672,21.973,23.926,1.465,-263.672
1637884645.995,38.086,22.461,24.414,42.969,384.766
1637884645.999,35.645,30.273,22.949,31.250,347.656
1637884646.003,11.719,27.344,25.879,-13.184,-270.020
1637884646.007,10.742,20.508,20.996,-10.254,-401.367
1637884646.011,38.086,25.879,21.484,33.203,183.594
1637884646.014,39.551,28.809,25.391,38.086,457.031
1637884646.018,11.719,28.320,21.484,-2.441,-125.488
1637884646.022,-1.953,25.391,23.926,-20.996,-400.879
1637884646.026,22.461,20.996,29.297,17.090,1.953
1637884646.030,41.504,22.949,30.762,47.363,497.559
1637884646.024,24.902,27.344,28.320,21.484,11.230
1637884646.028,15.625,27.344,25.879,-5.859,-344.727
1637884646.032,23.926,25.391,30.273,12.207,-62.012
1637884646.036,37.598,25.879,30.273,47.363,473.633
1637884646.040,22.461,28.320,23.438,25.879,226.562
1637884646.044,-4.395,30.273,24.414,-12.695,-267.578
1637884646.048,3.418,22.461,32.227,0.488,-284.180
1637884646.051,31.250,19.043,32.715,46.387,308.105
1637884646.055,30.273,29.297,25.879,43.945,377.441
1637884646.059,9.766,30.762,24.902,0.488,-209.961
1637884646.063,12.207,21.973,30.273,-3.418,-359.863
1637884646.067,35.645,23.438,35.645,43.457,172.852
1637884646.080,40.527,30.273,33.203,52.734,471.680
1637884646.084,18.066,31.738,30.273,12.695,-77.637
1637884646.088,8.789,28.320,29.785,-4.395,-356.445
1637884646.092,34.668,29.785,32.227,33.691,-17.090
1637884646.096,51.270,29.297,32.227,55.664,489.746
1637884646.100,26.855,27.344,22.949,15.625,95.215
1637884646.104,6.348,27.344,21.973,-21.484,-380.371
1637884646.107,20.508,24.414,25.879,-0.488,-184.082
1637884646.111,42.480,21.973,25.879,52.246,483.398
1637884646.115,29.297,22.461,26.367,37.598,310.547
1637884646.119,8.301,23.438,26.855,-7.324,-278.809
1637884646.123,15.625,24.414,31.738,-0.488,-369.141
1637884646.118,41.992,21.973,35.156,46.387,286.133
1637884646.122,40.527,17.090,24.902,52.246,463.867
1637884646.126,15.137,22.949,21.973,15.137,-167.969
1637884646.130,4.395,25.879,24.414,3.418,-353.027
1637884646.134,28.809,22.949,30.273,41.992,108.398
1637884646.138,40.527,27.344,30.273,54.688,484.375
1637884646.142,18.066,28.320,24.902,14.160,-19.043
1637884646.145,7.324,24.902,27.832,-11.719,-401.367
1637884646.149,23.438,22.461,32.227,16.113,-101.562
1637884646.153,39.551,27.344,30.273,58.594,470.703
1637884646.157,18.066,29.785,25.391,30.273,147.461
1637884646.161,0.488,26.855,32.227,-10.742,-319.824
1637884646.174,17.090,28.320,36.133,12.207,-201.172
1637884646.178,36.133,25.391,31.250,43.945,386.719
1637884646.182,24.902,22.461,30.273,27.344,254.395
1637884646.186,4.883,23.926,27.832,-0.488,-278.809
1637884646.190,2.930,24.414,26.855,-7.812,-363.281
1637884646.194,27.832,20.508,27.832,38.086,200.195
1637884646.198,36.133,20.996,25.879,50.781,440.430
1637884646.201,10.254,22.949,22.949,-9.277,-148.438
1637884646.205,1.953,24.414,22.949,-23.926,-430.664
1637884646.209,28.320,21.484,28.809,24.414,23.438
1637884646.213,37.598,25.879,28.809,47.852,530.273
1637884646.217,16.113,35.156,27.832,13.672,17.578
1637884646.212,5.859,34.180,28.320,-8.301,-397.949
1637884646.216,21.484,31.250,25.879,20.508,-98.633
1637884646.220,37.109,24.414,24.414,49.316,498.047
1637884646.224,22.949,21.973,22.949,18.555,175.293
1637884646.228,5.859,29.785,28.809,-14.648,-314.941
1637884646.232,7.324,28.809,29.297,-1.465,-248.535
1637884646.236,32.227,30.762,31.250,40.039,374.023
1637884646.239,33.203,31.250,26.367,40.039,381.348
1637884646.243,9.766,26.855,20.020,4.395,-203.125
1637884646.247,5.371,29.785,26.855,-10.254,-385.742
1637884646.251,31.250,31.250,37.109,37.109,177.734
1637884646.255,35.156,29.297,36.133,57.129,496.094
1637884646.268,10.742,29.297,26.367,16.602,-122.070
1637884646.272,-2.441,18.555,27.832,-13.184,-381.836
1637884646.276,12.207,15.625,33.691,6.348,72.266
1637884646.280,32.227,25.879,30.762,38.086,530.273
1637884646.284,13.672,32.227,25.879,7.324,47.852
1637884646.288,-1.953,31.738,25.879,-17.578,-380.371
1637884646.292,13.184,24.902,25.391,6.348,-164.551
1637884646.295,36.133,23.438,26.367,40.527,441.406
1637884646.299,25.391,21.484,24.902,29.297,223.145
1637884646.303,6.348,24.902,22.949,-1.465,-307.129
1637884646.307,19.531,26.855,29.785,16.602,-302.734
1637884646.311,45.898,23.926,27.832,65.918,308.594
1637884646.305,41.992,28.809,20.508,49.805,380.371
1637884646.309,19.043,27.832,18.555,1.953,-221.191
1637884646.313,15.137,21.973,20.996,2.441,-383.301
1637884646.317,35.156,20.996,28.320,43.457,163.086
1637884646.321,43.457,25.879,30.273,47.852,489.746
1637884646.325,25.879,29.297,27.344,16.113,-75.195
1637884646.329,16.113,25.391,22.949,4.395,-382.324
1637884646.332,37.109,20.508,26.855,38.086,-36.133
1637884646.336,55.664,28.320,28.320,63.965,503.906
1637884646.340,36.621,34.668,32.715,28.320,66.895
1637884646.344,13.184,30.273,34.668,1.465,-350.098
1637884646.348,20.020,26.367,28.809,19.531,-175.293
1637884646.362,44.434,23.438,25.879,55.664,424.805
1637884646.366,32.227,24.902,19.043,35.645,300.781
1637884646.370,8.789,27.344,19.043,0.977,-296.387
1637884646.374,14.160,26.367,21.973,3.906,-332.520
1637884646.378,38.574,22.461,21.973,40.039,293.457
1637884646.382,42.480,23.926,19.531,44.922,447.754
1637884646.386,24.902,26.367,19.043,10.742,-154.297
1637884646.389,17.090,22.949,20.508,2.930,-386.719
1637884646.393,41.504,23.438,28.320,35.645,130.371
1637884646.397,55.176,28.320,29.785,58.105,519.043
1637884646.401,26.367,24.902,22.949,20.508,-41.504
1637884646.405,11.719,24.902,22.949,-2.930,-401.855
1637884646.400,31.250,28.809,29.785,29.297,-85.449
1637884646.404,50.781,31.738,31.738,61.523,524.902
1637884646.408,31.738,32.227,27.344,42.969,146.484
1637884646.412,12.207,31.250,26.855,-4.395,-375.488
1637884646.416,19.531,30.273,23.926,2.441,-218.750
1637884646.420,44.922,28.320,28.809,57.617,416.992
1637884646.424,40.527,28.809,29.297,51.758,354.492
1637884646.427,19.043,27.832,25.391,18.066,-237.305
1637884646.431,23.438,28.320,25.391,17.090,-385.254
1637884646.435,46.387,27.344,31.738,47.852,220.703
1637884646.439,48.828,29.297,38.574,59.570,466.309
1637884646.443,24.414,29.297,36.133,22.949,-137.695
1637884646.457,9.277,27.344,35.156,6.348,-400.879
1637884646.461,30.762,23.438,34.180,42.969,54.199
1637884646.465,46.387,23.438,28.320,62.012,515.137
1637884646.469,20.508,31.250,28.320,22.461,3.906
1637884646.473,1.465,26.367,28.320,-2.441,-408.203
1637884646.477,18.066,23.438,30.273,21.484,-115.234
1637884646.481,41.992,28.320,34.180,45.410,496.582
1637884646.484,27.832,27.344,32.227,17.578,221.191
1637884646.488,1.953,29.297,30.273,-10.742,-304.199
1637884646.492,9.766,31.250,32.227,-3.418,-281.738
1637884646.496,40.527,30.273,37.598,41.016,379.395
1637884646.500,36.133,32.227,33.691,42.969,358.398
1637884646.493,10.742,29.785,23.926,-6.348,-238.281
1637884646.497,6.348,23.926,20.508,-12.695,-331.055
1637884646.501,27.832,23.438,23.926,39.062,223.633
1637884646.505,35.645,25.391,26.855,55.664,494.629
1637884646.509,10.742,25.391,26.367,13.184,-99.609
1637884646.513,-2.930,23.438,27.832,-3.906,-387.695
1637884646.517,22.461,20.020,31.738,32.715,4.883
1637884646.520,41.504,26.855,30.762,48.340,504.883
1637884646.524,19.043,34.180,24.414,12.207,58.105
1637884646.528,7.812,32.227,24.902,-10.742,-372.559
1637884646.532,27.344,32.227,30.273,18.066,-166.016
1637884646.536,48.340,36.133,36.621,58.105,496.094
1637884646.549,31.738,37.598,24.414,36.621,236.816
1637884646.553,9.277,36.621,16.602,-3.418,-338.379
1637884646.557,15.137,30.273,20.996,-7.812,-330.566
1637884646.561,39.062,28.809,23.926,36.133,300.293
1637884646.565,40.527,30.762,26.855,41.504,394.043
1637884646.569,18.555,33.203,22.949,-5.859,-215.820
1637884646.573,13.672,31.738,20.020,-17.090,-315.430
1637884646.576,41.016,22.949,23.438,30.273,189.941
1637884646.580,52.246,24.902,23.926,54.688,494.141
1637884646.584,27.344,32.715,25.879,11.719,-60.547
1637884646.588,20.020,37.109,30.273,-20.020,-394.531
1637884646.592,37.109,35.156,28.320,17.090,-47.852
1637884646.587,48.828,31.250,26.855,50.293,501.465
1637884646.591,27.832,28.320,23.438,20.996,113.281
1637884646.595,12.207,23.926,25.879,-4.883,-310.059
1637884646.599,29.297,25.879,34.668,16.113,-161.621
1637884646.603,49.316,26.855,35.645,53.711,419.434
1637884646.607,40.039,28.320,33.203,39.062,295.410
1637884646.611,19.531,31.250,34.668,8.789,-232.910
1637884646.614,20.996,28.809,32.715,12.695,-331.055
1637884646.618,47.363,22.949,31.738,44.434,212.891
1637884646.622,51.758,26.367,31.738,47.363,390.625
1637884646.626,22.461,29.297,26.855,8.789,-182.129
1637884646.630,17.090,29.297,29.297,-7.324,-417.969
1637884646.643,40.527,27.344,29.785,34.668,97.656
1637884646.647,46.875,27.832,25.879,57.617,516.602
1637884646.651,25.879,30.762,26.367,20.020,-18.555
1637884646.655,7.324,28.809,27.344,-5.371,-382.324
1637884646.659,24.902,26.367,28.809,24.902,-115.723
1637884646.663,48.340,24.414,28.809,55.664,462.402
1637884646.667,30.273,27.344,22.949,28.809,145.020
1637884646.670,9.277,31.738,24.414,-4.395,-326.660
1637884646.674,18.066,28.809,30.762,4.883,-250.000
1637884646.678,40.527,24.414,25.391,51.270,384.766
1637884646.682,28.809,30.273,24.414,41.016,338.379
1637884646.686,8.789,34.180,32.715,-1.465,-256.348
1637884646.681,14.160,30.273,33.203,-7.812,-348.145
1637884646.685,38.574,25.391,31.250,35.645,239.258
1637884646.689,40.527,26.855,29.297,54.688,495.605
1637884646.693,18.066,30.762,25.879,14.648,-112.305
1637884646.697,11.719,31.250,27.344,-8.789,-391.113
1637884646.701,35.645,26.855,24.902,33.691,69.824
1637884646.705,50.781,25.391,22.461,60.059,548.340
1637884646.708,29.297,30.273,28.809,24.414,72.754
1637884646.712,14.160,30.762,27.344,4.395,-356.445
1637884646.716,28.320,25.391,26.855,21.973,-145.996
1637884646.720,52.734,24.902,26.855,50.293,478.516
1637884646.724,42.969,32.227,27.832,34.180,172.852
1637884646.737,17.578,32.227,26.367,1.953,-349.609
1637884646.741,25.391,26.367,21.484,8.301,-292.480
1637884646.745,51.758,26.367,20.996,49.805,343.262
1637884646.749,43.945,28.809,20.996,54.199,368.164
1637884646.753,20.996,27.344,21.484,7.812,-260.742
1637884646.757,16.113,28.320,19.531,-10.742,-388.672
1637884646.761,40.527,30.762,20.020,31.250,162.598
1637884646.764,44.434,30.273,24.414,49.316,479.492
1637884646.768,14.160,29.785,20.020,11.230,-68.359
1637884646.772,7.324,27.832,18.555,-7.812,-420.898
1637884646.776,33.691,24.902,26.855,33.691,-77.637
1637884646.780,51.270,24.414,28.320,64.941,497.070
1637884646.774,33.203,26.855,28.320,36.621,18.066
1637884646.778,14.160,31.250,28.320,8.789,-461.914
1637884646.782,25.879,28.320,26.367,24.902,-196.777
1637884646.786,49.805,26.855,27.344,61.035,462.891
1637884646.790,35.645,26.367,24.902,41.504,258.789
1637884646.794,13.672,23.926,24.902,6.348,-291.504
1637884646.798,21.973,22.461,29.297,19.043,-330.566
1637884646.801,47.363,20.508,30.762,62.012,280.762
1637884646.805,42.480,17.578,25.391,59.570,398.438
1637884646.809,16.113,20.508,20.020,16.113,-174.805
1637884646.813,10.254,22.461,24.414,6.348,-391.602
1637884646.817,42.969,24.414,29.785,52.734,125.000
1637884646.830,55.176,28.809,31.738,65.430,530.273
1637884646.834,27.832,29.785,36.133,27.832,-28.320
1637884646.838,14.648,27.832,34.668,4.883,-378.418
1637884646.842,32.715,21.484,33.691,27.832,-65.918
1637884646.846,51.270,21.973,34.668,62.012,522.461
1637884646.850,33.203,27.344,26.855,35.156,120.605
1637884646.854,13.672,24.902,25.879,0.977,-322.266
1637884646.857,21.484,21.484,24.902,14.648,-179.199
1637884646.861,42.969,24.902,25.879,56.152,414.062
1637884646.865,37.598,30.273,29.297,51.758,312.012
1637884646.869,17.090,26.855,27.344,14.648,-284.668
1637884646.873,16.113,24.902,32.715,4.395,-368.164
1637884646.868,42.969,31.250,34.668,37.109,263.672
1637884646.872,44.922,32.715,29.297,41.992,464.355
1637884646.876,22.461,30.762,26.367,6.836,-166.992
1637884646.880,13.184,28.320,23.926,-6.836,-421.875
1637884646.884,31.250,25.879,23.926,32.227,100.586
1637884646.888,43.457,28.320,23.438,48.340,512.207
1637884646.892,22.461,28.809,20.996,8.789,-33.203
1637884646.895,7.812,26.367,17.090,-7.812,-331.055
1637884646.899,27.832,28.320,18.066,23.438,-42.480
1637884646.903,52.246,31.738,28.809,46.387,477.539
1637884646.907,35.645,33.203,28.320,19.531,140.137
1637884646.911,15.137,31.738,22.949,-8.789,-347.656
1637884646.943,20.996,24.902,21.973,11.230,-250.977
1637884646.947,40.039,23.926,22.461,54.688,387.207
1637884646.951,32.715,26.855,23.926,34.668,336.426
1637884646.955,13.184,23.926,23.926,-5.859,-212.891
1637884646.959,13.672,18.555,22.949,-3.418,-300.293
1637884646.963,34.668,17.578,28.320,44.434,232.422
1637884646.967,35.156,23.438,27.832,57.129,440.430
1637884646.970,15.625,29.297,25.879,18.555,-143.066
1637884646.974,4.883,25.391,33.203,-0.977,-381.836
1637884646.978,26.855,18.555,34.668,29.297,48.340
1637884646.982,42.480,20.020,27.344,60.059,519.043
1637884646.986,17.090,22.949,25.879,25.879,-16.602
1637884646.963,3.906,19.043,27.344,-6.836,-480.957
1637884646.967,22.461,19.531,25.879,13.672,-185.547
1637884646.971,42.480,22.949,28.320,46.875,478.516
1637884646.975,30.273,26.855,28.809,28.320,207.031
1637884646.979,10.254,26.367,28.320,-7.812,-328.125
1637884646.983,18.066,23.926,27.832,1.953,-247.559
1637884646.987,42.969,22.949,30.762,43.945,374.023
1637884646.990,36.133,27.344,31.738,44.434,414.062
1637884646.994,20.996,30.762,27.344,19.043,-160.156
1637884646.998,19.531,24.414,25.391,4.883,-357.422
1637884647.002,38.574,20.508,25.879,34.668,163.086
1637884647.006,50.781,24.414,24.902,48.340,501.465
1637884647.018,26.855,31.738,23.438,12.695,-65.918
1637884647.022,12.695,26.855,27.344,-0.488,-388.184
1637884647.026,33.203,19.043,31.738,25.879,-4.883
1637884647.030,45.898,25.391,34.180,53.711,546.875
1637884647.034,26.367,29.785,29.785,26.367,84.473
1637884647.038,13.672,31.250,26.855,-4.395,-363.281
1637884647.042,29.297,31.250,30.273,22.949,-165.039
1637884647.045,51.758,29.297,30.762,55.176,439.453
1637884647.049,38.574,30.273,27.832,29.785,243.652
1637884647.053,14.160,30.273,24.414,-5.371,-258.301
1637884647.057,17.578,26.367,24.414,3.418,-323.242
1637884647.061,42.969,25.391,22.461,48.340,228.516
1637884647.055,43.457,24.902,22.461,47.852,395.996
1637884647.059,21.484,24.902,25.391,4.395,-189.941
1637884647.063,15.625,29.297,21.484,-6.836,-358.887
1637884647.067,37.109,28.320,22.949,38.574,148.438
1637884647.071,47.363,29.297,28.809,58.594,518.066
1637884647.075,26.855,33.203,28.809,25.391,-44.434
1637884647.079,17.090,29.785,27.344,5.859,-382.324
1637884647.082,34.668,21.973,28.809,32.715,-28.320
1637884647.086,50.293,24.414,30.762,66.895,522.461
1637884647.090,29.785,30.273,23.438,31.738,145.508
1637884647.094,11.719,32.715,19.043,-15.137,-371.094
1637884647.098,17.578,28.320,26.855,4.395,-236.328
1637884647.112,37.598,20.996,28.809,48.828,431.641
1637884647.116,29.297,23.926,21.973,34.668,305.664
1637884647.120,3.418,23.438,20.508,3.906,-256.348
1637884647.124,2.930,21.484,23.438,0.488,-338.379
1637884647.128,29.297,20.020,23.926,34.180,240.234
1637884647.132,32.227,22.461,25.391,48.828,437.012
1637884647.136,9.766,25.391,28.809,4.395,-193.359
1637884647.139,0.000,26.367,20.508,-14.648,-392.090
1637884647.143,22.949,25.391,23.438,29.785,80.566
1637884647.147,43.945,26.367,33.203,59.082,498.535
1637884647.151,25.391,24.902,25.391,34.180,-27.832
1637884647.155,13.184,13.184,27.832,9.277,-406.738
1637884647.150,30.762,17.578,32.715,29.785,-113.770
1637884647.154,53.711,26.367,26.855,56.641,474.609
1637884647.158,35.645,28.809,22.461,31.738,186.035
1637884647.162,10.254,39.551,25.391,7.324,-315.430
1637884647.166,17.090,37.109,26.855,17.090,-258.789
1637884647.170,39.062,29.785,26.855,56.641,392.578
1637884647.174,29.297,28.809,21.484,46.875,340.820
1637884647.177,0.977,23.926,21.484,6.348,-276.855
1637884647.181,2.441,16.602,26.367,6.348,-399.902
1637884647.185,32.227,19.043,28.320,38.574,179.199
1637884647.189,38.574,30.762,27.832,43.457,493.164
1637884647.193,15.137,33.691,22.949,5.371,-101.562
1637884647.205,6.348,29.297,25.391,-12.207,-411.621
1637884647.209,31.738,28.320,31.250,27.344,20.508
1637884647.213,45.898,29.297,31.250,63.965,526.367
1637884647.217,19.043,28.320,32.227,22.949,64.453
1637884647.221,1.465,25.879,25.879,-14.160,-384.766
1637884647.225,16.602,23.926,19.531,10.742,-189.453
1637884647.229,42.480,24.902,25.879,48.340,434.082
1637884647.232,36.133,28.320,28.809,30.273,206.543
1637884647.236,14.648,31.738,26.855,-3.418,-314.453
1637884647.240,17.578,31.738,27.344,7.324,-314.941
1637884647.244,40.039,24.902,29.297,47.852,345.215
1637884647.248,39.062,22.949,28.809,42.969,411.133
1637884647.243,17.578,28.809,25.391,2.441,-222.168
1637884647.247,4.395,26.855,25.391,-6.348,-380.371
1637884647.251,24.414,17.578,32.715,32.715,165.039
1637884647.255,36.621,20.508,30.273,50.293,504.883
1637884647.259,15.137,28.809,26.367,19.531,-83.008
1637884647.263,-1.465,28.809,27.832,-11.230,-406.738
1637884647.267,18.555,23.438,23.438,9.766,-2.441
1637884647.270,37.109,22.949,24.902,34.668,514.160
1637884647.274,15.137,25.879,24.902,17.578,80.566
1637884647.278,0.977,31.250,23.438,0.977,-361.328
1637884647.282,18.066,30.762,30.273,17.090,-218.262
1637884647.286,41.504,26.855,33.691,52.246,443.848
1637884647.299,32.715,29.297,29.785,37.598,308.594
1637884647.303,10.254,27.832,29.297,-8.301,-294.434
1637884647.307,12.695,26.855,28.320,-9.277,-380.859
1637884647.311,40.039,29.785,30.273,40.039,288.574
1637884647.315,39.551,28.809,31.738,56.152,420.410
1637884647.319,14.648,26.367,29.785,13.184,-246.094
1637884647.323,13.184,29.297,24.414,-14.160,-435.059
1637884647.326,41.016,28.320,23.438,27.344,120.605
1637884647.330,53.223,29.297,29.785,55.176,509.277
1637884647.334,30.273,31.738,24.902,22.949,-70.312
1637884647.338,13.672,25.879,21.973,1.465,-432.617
1637884647.342,32.715,21.973,30.762,34.668,-120.117
1637884647.337,56.641,27.344,31.738,68.848,462.402
1637884647.341,38.086,28.320,22.949,31.250,161.133
1637884647.345,18.066,25.391,25.879,-5.371,-330.078
1637884647.349,28.320,26.367,30.762,17.090,-277.832
1637884647.353,48.340,27.832,28.320,53.223,405.762
1637884647.357,42.969,32.227,27.344,40.527,303.711
1637884647.361,29.297,29.297,26.855,14.160,-304.199
1637884647.364,30.762,22.461,23.926,12.207,-396.484
1637884647.368,48.828,24.902,25.879,39.062,229.004
1637884647.372,53.711,27.832,26.855,55.176,457.520
1637884647.376,32.715,29.297,22.461,21.973,-142.578
1637884647.380,16.113,25.879,18.066,-3.418,-392.090
1637884647.393,37.598,22.461,23.438,41.016,80.078
1637884647.397,49.805,24.414,24.902,56.152,541.992
1637884647.401,19.531,28.809,22.461,7.324,-10.254
1637884647.405,6.836,26.367,25.391,-14.648,-397.461
1637884647.409,23.926,23.926,25.879,13.672,-108.398
1637884647.413,44.922,24.902,24.414,56.641,516.602
1637884647.417,32.715,26.367,24.414,31.738,159.180
1637884647.420,9.766,27.344,23.438,-11.230,-345.215
1637884647.424,12.695,19.043,23.438,16.602,-244.141
1637884647.428,37.109,18.066,29.785,52.246,364.258
1637884647.432,39.551,27.344,29.297,26.367,421.875
1637884647.436,16.113,30.273,24.414,-6.836,-189.941
1637884647.430,14.160,25.879,26.367,-5.859,-366.699
1637884647.434,38.086,20.020,32.227,41.504,239.258
1637884647.438,41.992,20.996,32.715,54.199,487.305
1637884647.442,18.066,20.508,28.809,14.648,-130.371
1637884647.446,10.254,22.949,28.809,2.930,-372.559
1637884647.450,36.133,28.809,33.691,36.133,36.133
1637884647.454,46.875,25.391,35.645,56.641,487.305
1637884647.457,20.020,25.391,26.855,28.809,31.250
1637884647.461,6.348,24.902,23.926,-4.395,-387.207
1637884647.465,20.996,20.020,26.367,11.230,-209.473
1637884647.469,40.039,21.973,21.973,54.199,457.520
1637884647.473,31.250,22.461,22.949,37.109,260.742
1637884647.487,11.719,20.508,23.438,-1.465,-276.367
1637884647.491,17.090,23.438,23.926,5.859,-332.520
1637884647.495,42.480,25.391,30.762,47.363,288.574
1637884647.499,39.551,23.926,34.180,49.316,402.832
1637884647.503,14.160,23.438,31.738,12.207,-193.359
1637884647.507,8.789,23.926,32.227,5.859,-365.234
1637884647.511,40.527,26.855,35.645,42.480,137.207
1637884647.514,53.711,29.785,30.762,61.035,477.539
1637884647.518,28.320,26.367,23.438,28.809,-73.730
1637884647.522,15.625,29.785,27.344,0.000,-390.137
1637884647.526,32.715,28.809,33.203,31.250,-20.508
1637884647.530,51.758,28.809,29.785,56.152,522.461
1637884647.524,30.762,30.762,25.391,22.949,83.496
1637884647.528,16.113,27.832,26.855,-2.441,-363.281
1637884647.532,31.250,26.367,30.273,24.902,-164.551
1637884647.536,49.316,21.973,28.809,57.617,445.801
1637884647.540,34.668,22.461,26.367,33.691,253.906
1637884647.544,15.137,25.879,22.461,0.977,-314.453
1637884647.548,24.414,24.902,20.020,12.207,-329.590
1637884647.551,50.293,25.879,22.461,53.711,280.762
1637884647.555,46.387,29.785,26.367,49.316,441.895
1637884647.559,20.508,25.879,26.855,6.348,-142.578
1637884647.563,14.160,22.949,25.391,-5.371,-374.512
1637884647.567,38.086,23.926,26.855,30.762,109.863
1637884647.580,52.734,28.320,29.297,55.176,527.344
1637884647.584,27.344,29.785,23.926,15.625,-7.324
1637884647.588,8.789,25.391,19.531,-11.230,-394.043
1637884647.592,23.926,20.020,20.508,20.996,-100.586
1637884647.596,42.969,16.602,20.996,46.387,495.605
1637884647.600,34.180,18.555,25.391,22.949,113.770
1637884647.604,18.066,24.414,25.391,-6.348,-336.426
1637884647.607,24.414,22.461,28.809,5.371,-212.402
1637884647.611,48.828,21.484,30.273,50.781,385.254
1637884647.615,40.039,25.879,29.297,45.410,359.375
1637884647.619,20.996,24.902,30.273,11.230,-194.336
1637884647.623,21.484,22.461,25.879,4.395,-345.215
1637884647.619,41.016,21.484,22.949,35.645,199.219
1637884647.623,45.410,20.508,24.414,46.387,456.543
1637884647.627,23.438,20.996,20.508,13.672,-137.207
1637884647.631,15.137,28.809,18.555,1.953,-418.457
1637884647.635,34.668,28.320,22.461,30.273,62.012
1637884647.639,49.805,21.484,27.832,52.734,541.016
1637884647.643,29.297,24.902,27.832,30.762,0.000
1637884647.646,8.301,27.832,27.832,0.977,-415.527
1637884647.650,22.461,21.973,33.203,21.484,-181.152
1637884647.654,51.758,26.367,32.715,62.988,424.805
1637884647.658,42.480,35.156,28.809,37.598,207.031
1637884647.662,15.625,31.250,26.855,-6.348,-309.082
1637884647.674,17.578,25.879,21.973,-1.465,-286.133
1637884647.678,42.969,26.367,22.461,40.527,360.840
1637884647.682,37.109,30.762,24.414,37.109,374.023
1637884647.686,10.254,31.250,22.949,-1.465,-227.051
1637884647.690,8.789,26.855,23.438,-4.395,-415.527
1637884647.694,31.250,24.414,23.926,43.945,151.367
1637884647.698,33.691,27.344,22.949,56.152,508.301
1637884647.701,17.090,29.297,21.484,9.766,-65.918
1637884647.705,5.371,29.297,22.461,-15.137,-345.703
1637884647.709,18.066,26.367,23.926,16.113,19.043
1637884647.713,42.480,22.949,19.531,50.781,507.812
1637884647.717,28.320,27.344,18.066,20.020,62.500
1637884647.712,2.930,26.367,18.555,-15.137,-353.027
1637884647.716,15.137,24.414,20.996,13.672,-148.926
1637884647.720,43.945,25.879,23.926,53.223,464.844
1637884647.724,30.273,25.879,24.414,24.902,257.324
1637884647.728,5.371,24.902,24.902,-9.277,-264.160
1637884647.732,10.742,24.902,22.949,8.301,-288.574
1637884647.736,36.133,22.949,28.320,48.340,280.273
1637884647.739,31.738,20.508,26.855,39.551,387.695
1637884647.743,18.066,29.785,20.996,3.906,-171.387
1637884647.747,15.137,32.715,24.902,-10.254,-390.625
1637884647.751,30.762,25.391,24.902,26.367,88.867
1637884647.755,42.480,20.996,24.902,43.457,518.066
1637884647.768,18.066,20.508,27.344,3.418,-50.781
1637884647.772,7.812,26.367,24.414,-16.113,-452.637
1637884647.776,26.855,23.926,25.391,17.090,-62.500
1637884647.780,41.504,22.949,28.320,56.152,526.855
1637884647.784,26.855,28.320,24.414,27.832,110.840
1637884647.788,12.695,34.668,28.320,-13.184,-344.238
1637884647.792,21.973,30.273,28.809,4.883,-202.637
1637884647.795,38.574,23.438,23.438,41.016,409.180
1637884647.799,27.832,27.832,23.438,27.832,294.922
1637884647.803,11.230,27.344,20.996,2.930,-283.203
1637884647.807,18.066,23.438,20.020,7.324,-333.984
1637884647.811,42.480,26.367,23.438,44.434,267.578
1637884647.805,44.922,28.809,21.973,51.758,447.266
1637884647.809,22.949,29.297,23.926,18.066,-104.004
1637884647.813,13.184,31.250,27.832,2.930,-330.078
1637884647.817,42.480,34.668,23.926,36.133,118.652
1637884647.821,57.129,37.109,27.832,57.129,510.742
1637884647.825,28.809,36.621,23.438,23.438,-56.641
1637884647.829,15.137,32.715,17.090,-5.859,-440.918
1637884647.832,32.227,26.855,23.438,18.555,-128.906
1637884647.836,50.781,25.879,23.438,57.129,498.535
1637884647.840,31.250,29.785,28.809,32.715,140.625
1637884647.844,10.254,25.879,31.250,-3.906,-383.789
1637884647.848,20.996,23.438,31.738,10.254,-260.254
1637884647.862,42.969,29.297,31.250,52.246,426.758
1637884647.866,37.598,33.691,26.367,43.945,396.484
1637884647.870,17.578,30.762,22.949,3.906,-260.254
1637884647.874,18.066,26.855,24.902,1.953,-406.250
1637884647.878,36.621,23.438,28.320,44.922,238.281
1637884647.882,37.598,23.926,28.320,52.734,520.020
1637884647.886,14.160,23.438,24.902,13.184,-91.309
1637884647.889,5.371,16.602,23.438,-11.719,-376.465
1637884647.893,25.879,16.602,24.902,22.461,68.359
1637884647.897,43.457,26.855,24.414,50.781,576.172
1637884647.901,25.879,28.320,25.879,16.602,11.719
1637884647.905,7.812,22.949,29.785,-6.836,-452.148
1637884647.899,27.344,26.855,31.738,18.555,-164.551
1637884647.903,54.199,29.785,31.250,58.594,488.281
1637884647.907,35.156,24.414,28.809,37.109,274.414
1637884647.911,10.742,27.832,26.367,-6.836,-323.242
1637884647.915,17.578,29.297,26.855,4.883,-349.121
1637884647.919,38.574,21.973,29.785,54.199,324.707
1637884647.923,33.203,27.832,26.367,43.457,410.645
1637884647.926,12.695,35.645,20.020,0.000,-192.383
1637884647.930,7.324,31.250,20.020,-9.766,-400.879
1637884647.934,30.762,25.391,28.320,25.879,167.480
1637884647.938,38.574,23.926,32.715,40.527,514.648
1637884647.942,12.207,26.367,25.879,5.371,-36.621
1637884647.955,-1.953,28.809,24.902,-5.859,-299.316
1637884647.959,18.555,27.344,30.273,28.320,22.949
1637884647.963,36.133,29.297,27.832,41.992,524.414
1637884647.967,14.648,28.320,21.973,8.789,65.918
1637884647.971,-1.465,22.461,23.438,-18.066,-382.324
1637884647.975,16.602,24.414,27.832,0.488,-170.410
1637884647.979,39.551,28.809,26.855,42.969,425.293
1637884647.982,28.809,28.320,24.414,28.320,240.723
1637884647.986,5.859,25.879,23.438,-3.906,-323.242
1637884647.990,7.324,25.391,23.438,12.207,-362.305
1637884647.994,33.203,23.438,27.344,46.875,294.922
1637884647.998,30.273,23.926,28.320,32.227,408.691
1637884647.993,10.254,32.227,29.297,3.906,-226.074
1637884647.997,7.812,32.227,26.855,1.465,-402.344
1637884648.001,33.203,24.414,26.855,39.551,154.297
1637884648.005,43.945,24.414,26.367,51.758,499.512
1637884648.009,19.531,25.879,20.996,12.207,-32.227
1637884648.013,10.254,25.879,24.414,-11.719,-384.766
1637884648.017,28.809,23.438,28.809,21.484,-84.473
1637884648.020,51.270,27.344,26.855,63.965,518.555
1637884648.024,35.645,36.133,24.902,27.344,131.836
1637884648.028,13.184,36.133,19.531,-11.230,-368.164
1637884648.032,26.367,28.320,21.484,12.695,-241.211
1637884648.036,52.734,28.809,29.785,51.758,419.434
1637884648.049,43.945,32.715,30.762,39.062,305.664
1637884648.053,20.996,28.809,23.926,1.953,-307.617
1637884648.057,18.555,25.879,23.438,0.000,-383.789
1637884648.061,41.992,22.949,30.273,45.898,242.676
1637884648.065,45.410,24.902,26.367,48.828,467.285
1637884648.069,23.926,30.762,21.973,0.000,-173.340
1637884648.073,18.555,30.762,26.367,-15.625,-439.941
1637884648.076,41.016,23.438,29.297,25.391,66.895
1637884648.080,50.293,24.414,30.273,53.711,554.199
1637884648.084,27.832,27.344,27.344,21.973,16.602
1637884648.088,17.578,25.879,28.320,-2.441,-389.648
1637884648.092,39.062,32.715,31.738,20.020,-124.023
1637884648.088,50.293,32.715,27.832,40.527,492.676
1637884648.092,23.926,28.809,25.391,17.090,204.102
1637884648.096,3.906,30.273,25.879,-5.371,-311.523
1637884648.100,9.766,29.297,27.344,8.789,-213.867
1637884648.104,37.598,30.273,30.273,45.898,409.180
1637884648.108,37.109,29.785,26.855,41.992,328.613
1637884648.112,13.184,30.762,24.902,4.395,-230.469
1637884648.115,10.254,31.250,28.809,-5.859,-273.926
1637884648.119,31.250,24.414,28.809,28.320,262.207
1637884648.123,40.039,22.461,26.367,39.062,479.004
1637884648.127,14.160,20.996,24.902,-2.441,-156.250
1637884648.131,0.977,20.020,23.926,-19.043,-471.680
1637884648.143,25.391,22.461,27.344,22.949,-9.277
1637884648.147,40.527,23.438,27.344,47.363,529.785
1637884648.151,21.484,28.320,24.902,13.672,18.066
1637884648.155,5.371,30.762,26.367,-12.207,-382.324
1637884648.159,16.113,24.902,29.785,10.254,-122.559
1637884648.163,42.969,26.855,38.574,53.711,494.629
1637884648.167,28.320,31.738,36.133,36.133,211.914
1637884648.170,5.371,29.785,28.809,-7.324,-304.688
1637884648.174,16.602,29.297,30.762,2.930,-306.641
1637884648.178,41.504,22.949,27.344,41.016,325.195
1637884648.182,37.109,20.020,25.391,39.062,395.508
1637884648.186,9.766,20.020,27.344,7.324,-274.414
1637884648.181,5.371,20.508,28.320,1.465,-418.457
1637884648.185,30.273,24.902,27.344,41.016,168.457
1637884648.189,38.086,31.250,31.250,51.270,537.109
1637884648.193,20.020,31.250,34.180,18.555,-47.363
1637884648.197,7.812,26.367,33.203,2.441,-407.227
1637884648.201,22.461,23.438,36.133,26.855,-18.066
1637884648.205,41.992,23.438,30.762,51.758,533.691
1637884648.208,26.855,23.438,23.926,21.484,101.562
1637884648.212,7.324,22.461,25.879,-6.836,-376.953
1637884648.216,19.043,24.414,25.391,12.695,-225.098
1637884648.220,44.922,27.832,27.344,56.152,423.340
1637884648.224,36.133,28.320,28.809,38.086,284.180
1637884648.237,16.602,27.832,26.855,-0.488,-275.879
1637884648.241,19.531,27.832,27.344,9.277,-374.023
1637884648.245,36.621,20.020,31.738,50.781,268.066
1637884648.249,35.645,18.555,28.809,47.363,457.520
1637884648.253,19.043,28.809,26.855,11.719,-171.875
1637884648.257,17.090,32.227,22.949,1.465,-436.035
1637884648.261,41.016,25.879,17.578,32.227,95.215
1637884648.264,52.734,27.832,21.484,49.316,541.992
1637884648.268,30.762,30.273,21.484,12.207,-33.203
1637884648.272,17.090,29.297,21.484,-15.137,-353.027
1637884648.276,38.086,29.785,23.926,16.602,-19.043
1637884648.280,57.129,29.297,24.414,49.805,511.719
1637884648.274,39.062,28.809,27.832,27.344,150.879
1637884648.278,16.602,27.344,29.785,6.836,-332.520
1637884648.282,18.066,20.508,26.367,15.137,-229.980
1637884648.286,40.527,21.484,27.832,50.781,424.805
1637884648.290,37.109,31.738,31.250,43.945,310.059
1637884648.294,10.742,29.297,29.297,0.977,-311.035
1637884648.298,8.789,18.555,28.320,-1.465,-367.676
1637884648.301,35.156,25.391,30.762,41.504,263.184
1637884648.305,39.551,31.250,28.320,47.852,486.328
1637884648.309,20.020,26.367,26.367,8.301,-101.074
1637884648.313,13.184,27.832,27.344,2.930,-383.301
1637884648.317,37.109,30.762,31.738,41.504,52.734
1637884648.330,48.828,28.809,27.832,59.082,551.270
1637884648.334,23.926,29.785,20.996,23.438,-4.883
1637884648.338,10.742,31.250,24.902,-1.465,-409.668
1637884648.342,25.879,26.367,28.809,20.020,-116.699
1637884648.346,47.363,27.344,34.668,52.734,513.184
1637884648.350,35.645,26.855,34.180,36.133,215.332
1637884648.354,12.695,22.949,28.320,1.953,-368.652
1637884648.357,19.043,25.879,24.902,17.578,-294.922
1637884648.361,42.969,25.879,25.879,60.059,396.484
1637884648.365,35.645,26.367,28.320,43.457,371.582
1637884648.369,16.602,22.949,28.809,1.953,-277.832
1637884648.373,20.508,21.973,24.902,3.418,-446.777
1637884648.368,48.828,26.855,24.414,47.363,178.223
1637884648.372,50.293,32.715,27.832,53.223,529.785
1637884648.376,13.672,30.762,29.297,17.090,-64.941
1637884648.380,-0.488,30.273,25.879,-3.906,-417.969
1637884648.384,18.555,25.391,25.879,18.555,-24.414
1637884648.388,33.691,19.531,30.762,40.039,512.695
1637884648.392,21.484,24.902,31.738,12.207,23.438
1637884648.395,7.324,22.949,31.738,-10.254,-357.910
1637884648.399,22.461,21.484,31.738,17.090,-120.605
1637884648.403,47.363,22.949,31.250,56.641,445.312
1637884648.407,27.344,20.508,30.273,32.715,204.590
1637884648.411,5.371,23.438,25.879,-3.418,-343.750
1637884648.424,19.531,26.367,28.809,5.859,-323.730
1637884648.428,51.270,25.391,37.109,54.688,333.008
1637884648.432,44.922,24.414,35.156,55.664,414.062
1637884648.436,10.254,20.996,27.832,5.859,-194.336
1637884648.440,2.930,19.043,24.902,-7.324,-369.629
1637884648.444,30.273,19.043,27.344,35.156,172.363
1637884648.448,41.992,24.902,29.297,49.805,541.504
1637884648.451,19.043,30.273,24.414,7.812,-68.848
1637884648.455,8.301,24.902,20.508,-5.859,-418.457
1637884648.459,29.785,23.926,21.484,27.344,-3.906
1637884648.463,48.828,26.855,24.902,55.176,523.926
1637884648.467,31.250,28.809,30.762,26.367,104.980
1637884648.462,7.812,28.809,30.762,-6.836,-339.355
1637884648.466,18.066,26.855,32.715,14.648,-204.102
1637884648.470,44.922,25.391,35.645,55.176,448.730
1637884648.474,33.203,25.391,28.809,40.039,312.988
1637884648.478,4.883,24.414,23.438,1.465,-269.531
1637884648.482,3.418,20.996,24.414,0.488,-364.258
1637884648.486,33.691,19.043,31.738,41.504,271.484
1637884648.489,41.504,20.020,29.297,41.992,493.652
1637884648.493,17.090,21.484,17.578,-7.324,-173.828
1637884648.497,7.812,19.043,17.578,-23.926,-452.148
1637884648.501,35.156,14.160,23.926,25.879,80.078
1637884648.505,45.410,18.066,21.973,50.293,528.320
1637884648.518,17.090,27.832,19.043,17.578,-12.695
1637884648.522,3.906,29.297,18.066,-1.953,-372.070
1637884648.526,24.902,19.531,22.461,31.250,-57.617
1637884648.530,44.922,17.090,26.855,62.988,535.645
1637884648.534,28.809,23.438,24.902,27.832,129.883
1637884648.538,13.184,24.414,31.250,0.977,-412.109
1637884648.542,30.762,21.973,33.203,24.414,-267.090
1637884648.545,58.594,22.949,30.273,64.453,396.973
1637884648.549,48.828,24.414,29.297,55.176,373.047
1637884648.553,26.367,24.902,29.785,18.066,-244.629
1637884648.557,22.949,22.949,31.250,14.648,-394.043
1637884648.561,46.875,25.879,34.668,49.805,235.840
1637884648.557,52.734,28.320,37.109,50.781,485.840
1637884648.561,22.949,24.414,31.738,6.836,-152.344
1637884648.565,7.812,24.414,27.832,-7.812,-385.742
1637884648.569,27.344,18.555,28.809,30.273,70.312
1637884648.573,45.410,20.996,25.879,47.363,494.141
1637884648.577,25.879,29.785,20.996,5.859,3.906
1637884648.581,6.348,28.809,23.438,-20.996,-397.461
1637884648.584,23.438,25.391,28.809,7.324,-112.305
1637884648.588,42.969,24.414,26.855,39.551,533.691
1637884648.592,21.973,20.508,22.949,8.301,202.148
1637884648.596,-0.977,17.090,21.973,-20.020,-314.941
1637884648.600,5.371,14.648,28.320,3.418,-232.422
1637884648.612,31.738,16.602,33.691,47.852,408.691
1637884648.616,33.691,21.484,25.879,41.016,420.898
1637884648.620,12.695,21.484,25.879,4.395,-231.934
1637884648.624,15.625,20.996,29.785,4.395,-393.555
1637884648.628,44.922,19.043,31.738,46.387,223.145
1637884648.632,46.875,25.391,28.809,56.641,503.906
1637884648.636,26.367,35.645,26.367,22.461,-100.098
1637884648.639,17.578,34.180,27.344,-1.953,-384.277
1637884648.643,32.227,26.367,28.320,24.902,22.461
1637884648.647,49.316,24.414,27.832,53.223,561.035
1637884648.651,27.832,25.879,22.949,15.625,89.844
1637884648.655,2.441,28.320,18.066,-19.043,-425.781
1637884648.649,16.602,26.367,16.113,3.418,-204.590
1637884648.653,41.992,25.879,23.438,40.527,482.910
1637884648.657,31.250,29.785,24.414,23.438,213.379
1637884648.661,8.301,27.344,20.996,-6.836,-350.098
1637884648.665,14.160,18.066,21.484,3.906,-334.473
1637884648.669,38.086,15.625,23.926,44.922,275.391
1637884648.673,32.715,15.625,21.973,44.922,386.230
1637884648.676,7.812,17.090,20.020,6.348,-232.910
1637884648.680,4.883,20.996,26.855,1.465,-419.922
1637884648.684,31.738,21.973,28.320,41.504,139.160
1637884648.688,43.945,25.879,27.832,51.758,523.926
1637884648.692,19.531,28.809,27.832,20.020,-44.922
1637884648.705,8.301,30.273,29.785,3.418,-402.344
1637884648.709,27.832,29.297,30.273,33.691,-55.664
1637884648.713,42.969,24.414,25.391,64.453,520.020
1637884648.717,26.367,26.855,21.973,27.832,147.461
1637884648.721,10.742,27.832,20.996,-7.324,-371.094
1637884648.725,26.367,25.879,18.555,20.996,-227.051
1637884648.729,49.805,23.926,20.996,62.988,449.219
1637884648.732,37.109,25.879,24.414,38.574,302.246
1637884648.736,14.648,27.832,28.320,1.953,-340.820
1637884648.740,15.625,20.508,29.785,3.418,-438.477
1637884648.744,35.645,16.602,26.367,36.621,266.113
1637884648.748,33.691,29.785,29.785,40.527,477.539
1637884648.743,7.324,30.273,28.320,1.953,-110.840
1637884648.747,-5.859,20.996,22.949,-7.812,-317.871
1637884648.751,16.113,20.508,21.973,29.785,141.113
1637884648.755,32.715,19.531,23.926,53.711,550.293
1637884648.759,10.742,20.508,22.461,19.531,-29.297
1637884648.763,0.488,24.902,20.508,-10.254,-440.918
1637884648.767,21.484,21.973,22.949,23.438,-126.465
1637884648.770,44.922,23.438,29.785,60.059,502.441
1637884648.774,35.156,33.691,29.785,37.109,190.918
1637884648.778,15.625,32.715,25.879,-2.441,-277.832
1637884648.782,20.996,23.438,26.855,4.883,-218.262
1637884648.786,40.039,23.926,27.832,47.363,386.230
1637884648.799,32.715,27.344,21.484,34.180,334.961
1637884648.803,6.348,28.809,20.020,-13.672,-293.945
1637884648.807,-0.977,27.832,21.484,-23.438,-346.680
1637884648.811,23.926,22.461,20.996,22.461,283.691
1637884648.815,31.250,25.391,20.996,39.551,496.094
1637884648.819,14.648,31.250,25.391,16.113,-134.766
1637884648.823,4.883,30.762,26.855,-2.930,-457.520
1637884648.826,19.043,21.973,24.902,14.648,1.953
1637884648.830,33.691,19.531,24.414,38.086,563.965
1637884648.834,18.555,21.484,20.020,12.695,88.867
1637884648.838,2.930,20.508,20.020,-7.324,-362.793
1637884648.842,16.602,19.531,20.996,19.043,-145.020
1637884648.838,44.434,20.508,23.438,52.734,499.023
1637884648.842,38.086,24.414,25.391,33.691,243.164
1637884648.846,21.973,31.250,25.879,1.465,-331.055
1637884648.850,23.926,29.785,25.391,17.090,-302.246
1637884648.854,45.410,27.832,27.344,58.105,379.395
1637884648.858,41.016,35.156,29.297,47.363,371.094
1637884648.862,12.207,36.133,30.273,4.883,-291.016
1637884648.865,2.441,30.273,31.738,-4.395,-412.598
1637884648.869,26.367,20.996,28.320,38.574,166.992
1637884648.873,35.156,26.367,25.391,42.480,496.094
1637884648.877,12.207,33.691,25.879,-0.977,-106.934
1637884648.881,-0.977,30.273,22.461,-16.602,-474.121
1637884648.893,18.555,24.902,25.391,17.578,-47.363
1637884648.897,33.203,19.531,27.344,47.852,521.973
1637884648.901,15.625,21.973,24.902,16.602,88.867
1637884648.905,2.441,25.879,24.902,-8.301,-323.242
1637884648.909,17.090,20.996,23.926,13.672,-171.387
1637884648.913,41.504,19.043,22.949,48.828,453.613
1637884648.917,31.738,20.508,18.555,35.645,249.512
1637884648.920,11.719,22.461,20.020,-0.488,-326.660
1637884648.924,17.578,23.438,24.902,13.184,-350.586
1637884648.928,42.480,25.391,23.926,58.594,283.691
1637884648.932,47.852,33.203,16.602,54.688,415.039
1637884648.936,27.832,41.016,16.113,19.531,-208.984
1637884648.931,24.414,42.480,26.855,19.531,-395.508
1637884648.935,50.293,34.668,34.668,66.406,161.621
1637884648.939,55.176,28.809,34.668,82.520,562.500
1637884648.943,32.715,30.762,32.227,42.969,-2.441
1637884648.947,17.090,30.762,33.203,22.461,-387.207
1637884648.951,30.762,24.902,37.109,46.875,-62.012
1637884648.955,47.363,22.949,36.621,64.941,503.906
1637884648.958,22.949,23.926,30.762,33.691,80.078
1637884648.962,0.977,22.461,27.832,-4.395,-399.902
1637884648.966,9.277,21.484,33.691,3.906,-245.117
1637884648.970,31.738,25.391,40.527,45.898,413.086
1637884648.974,22.949,26.367,30.273,19.531,317.871
1637884648.987,-3.906,21.484,19.531,-28.320,-271.973
1637884648.991,-2.441,19.531,22.949,-19.531,-395.020
1637884648.995,26.855,16.602,27.344,20.020,257.812
1637884648.999,38.574,18.555,20.020,29.297,491.699
1637884649.003,19.531,26.855,16.113,-4.395,-171.387
1637884649.007,12.207,24.902,23.926,-16.602,-429.688
1637884649.011,42.480,28.320,25.391,26.855,74.219
1637884649.014,60.547,37.109,21.484,51.270,507.812
1637884649.018,35.645,32.227,24.414,19.531,-26.855
1637884649.022,20.508,32.715,26.855,-3.418,-386.719
1637884649.026,36.621,33.203,27.832,27.832,-76.660
1637884649.030,49.316,27.832,25.879,54.688,517.578
1637884649.025,24.902,25.879,21.973,27.344,185.547
1637884649.029,1.465,20.508,22.461,-3.906,-355.469
1637884649.033,17.578,17.578,29.297,8.789,-284.668
1637884649.037,40.039,19.531,27.344,46.387,419.922
1637884649.041,31.250,23.438,21.973,35.645,379.883
1637884649.045,5.859,24.414,27.344,0.977,-217.285
1637884649.049,0.000,20.508,22.949,-4.395,-339.355
1637884649.052,25.879,20.508,22.461,40.527,211.426
1637884649.056,34.668,29.785,24.414,52.246,505.371
1637884649.060,12.207,34.668,19.531,0.000,-97.656
1637884649.064,-3.418,21.973,20.020,-28.809,-372.559
1637884649.068,17.578,14.648,20.996,8.789,78.613
1637884649.082,36.621,19.043,20.508,40.527,555.176
1637884649.086,21.973,27.344,19.043,7.812,26.367
1637884649.090,12.207,33.691,15.137,-15.625,-458.496
1637884649.094,27.344,31.738,20.508,14.160,-143.555
1637884649.098,52.734,30.273,27.344,49.805,532.715
1637884649.102,43.945,30.273,25.391,38.086,244.629
1637884649.106,20.996,29.785,26.855,7.812,-314.453
1637884649.109,26.367,27.832,30.273,9.277,-358.887
1637884649.113,42.969,24.414,25.391,41.504,312.012
1637884649.117,31.738,24.902,21.973,31.738,388.672
1637884649.121,11.719,26.367,23.926,8.789,-227.051
1637884649.125,8.789,24.902,32.715,7.812,-410.156
1637884649.118,32.227,25.879,29.785,35.156,152.832
1637884649.122,41.016,32.227,24.414,51.758,526.855
1637884649.126,15.137,33.691,30.762,17.578,-103.027
1637884649.130,5.371,29.297,31.738,-8.301,-425.781
1637884649.134,28.809,25.391,34.180,31.250,-15.137
1637884649.138,46.387,24.414,33.691,65.430,558.594
1637884649.142,24.414,25.391,28.809,26.855,135.254
1637884649.145,6.348,27.832,26.367,-4.395,-371.582
1637884649.149,20.996,27.344,26.855,19.043,-210.938
1637884649.153,44.434,23.438,30.762,45.898,458.008
1637884649.157,33.691,24.414,29.785,25.879,301.270
1637884649.161,11.230,26.367,20.020,-6.348,-273.926
1637884649.174,16.113,25.879,21.484,0.977,-287.598
1637884649.178,42.969,23.926,30.762,41.016,342.773
1637884649.182,43.457,24.902,27.832,41.992,418.945
1637884649.186,21.484,27.832,26.855,8.301,-214.844
1637884649.190,14.648,26.855,27.344,-1.465,-422.852
1637884649.194,37.109,22.949,27.832,37.598,89.844
1637884649.198,42.480,22.461,29.297,52.734,500.977
1637884649.201,16.602,30.273,25.879,7.812,-40.039
1637884649.205,5.371,30.762,24.902,-20.996,-410.156
1637884649.209,18.066,27.344,32.715,15.137,-91.797
1637884649.213,34.180,28.809,33.691,55.664,538.574
1637884649.217,20.508,25.879,24.414,13.672,181.641
1637884649.212,0.488,22.949,30.273,-16.113,-362.793
1637884649.216,10.742,22.461,34.180,13.184,-256.836
1637884649.220,32.227,22.461,28.809,53.223,449.707
1637884649.224,27.344,26.855,33.691,42.480,349.609
1637884649.228,2.930,23.926,26.855,-3.418,-290.527
1637884649.232,-2.441,18.066,21.484,-3.906,-392.578
1637884649.236,25.879,15.625,23.926,39.062,252.930
1637884649.239,32.227,18.066,27.832,41.016,497.070
1637884649.243,2.930,20.996,30.762,-0.977,-175.781
1637884649.247,-6.836,21.973,24.414,-15.137,-476.562
1637884649.251,21.484,19.043,24.414,26.855,45.898
1637884649.255,39.062,17.090,28.809,48.340,562.500
1637884649.268,23.438,19.531,28.320,17.090,-21.973
1637884649.272,7.324,20.508,26.367,-3.906,-447.754
1637884649.276,18.555,20.996,24.902,13.184,-74.707
1637884649.280,43.457,20.508,28.809,50.293,522.949
1637884649.284,27.344,21.973,28.320,30.273,201.660
1637884649.288,5.371,19.043,22.949,0.488,-332.520
1637884649.292,15.625,15.625,29.297,9.277,-301.270
1637884649.295,41.016,18.555,27.832,42.480,374.023
1637884649.299,36.133,22.949,21.973,41.016,376.465
1637884649.303,16.113,23.438,26.855,11.230,-295.898
1637884649.307,11.719,21.484,25.879,5.859,-434.082
1637884649.311,37.109,22.461,24.902,33.203,174.316
1637884649.307,45.898,23.926,28.809,41.504,505.859
1637884649.311,21.973,30.273,30.273,12.695,-112.305
1637884649.315,11.230,32.227,25.879,-8.789,-408.203
1637884649.319,28.809,25.391,20.996,18.066,47.363
1637884649.323,45.898,24.902,20.020,44.922,508.789
1637884649.327,28.320,26.855,19.531,23.438,41.016
1637884649.331,8.789,25.391,24.414,2.441,-328.613
1637884649.334,17.090,22.949,24.414,10.254,-118.652
1637884649.338,41.992,26.855,21.973,45.410,480.469
1637884649.342,30.762,33.691,22.461,25.879,239.258
1637884649.346,7.812,32.715,26.367,-7.324,-339.355
1637884649.350,14.648,26.367,25.879,7.324,-362.793
1637884649.362,36.133,28.320,22.461,45.410,301.758
1637884649.366,33.203,30.273,20.020,44.922,418.457
1637884649.370,13.184,26.367,20.508,13.184,-189.941
1637884649.374,17.090,23.438,26.855,10.742,-397.461
1637884649.378,45.898,24.902,28.809,50.293,148.926
1637884649.382,50.293,28.809,29.297,56.152,522.949
1637884649.386,29.785,28.809,24.902,17.578,-61.035
1637884649.389,20.508,29.297,22.949,-6.836,-356.934
1637884649.393,37.109,26.855,23.926,27.832,33.203
1637884649.397,57.617,26.855,22.461,67.871,551.758
1637884649.401,42.480,33.691,21.973,37.598,97.168
1637884649.405,16.602,33.203,25.879,-0.488,-360.840
1637884649.399,19.043,24.902,28.809,6.836,-155.762
1637884649.403,41.992,25.391,26.367,43.945,472.168
1637884649.407,31.250,27.344,26.367,37.598,320.312
1637884649.411,9.766,26.367,24.414,7.324,-221.191
1637884649.415,17.090,25.879,23.438,10.742,-343.750
1637884649.419,43.457,26.855,26.855,48.340,266.602
1637884649.423,44.434,28.809,24.414,50.293,458.496
1637884649.426,20.508,29.297,19.531,10.742,-109.375
1637884649.430,8.301,26.855,19.531,-5.859,-367.676
1637884649.434,28.320,22.461,29.297,30.273,61.035
1637884649.438,43.945,25.879,33.203,49.805,537.598
1637884649.442,22.461,26.855,23.926,17.578,-23.438
1637884649.455,2.930,23.926,22.949,-6.836,-396.484
1637884649.459,17.578,20.996,26.367,16.602,-62.500
1637884649.463,37.598,20.996,29.297,53.223,503.906
1637884649.467,23.438,25.879,25.879,21.484,139.648
1637884649.471,3.906,28.320,20.508,-15.625,-421.875
1637884649.475,10.254,26.367,23.926,5.859,-311.523
1637884649.479,34.668,27.344,22.949,42.480,404.785
1637884649.482,31.250,34.180,24.902,34.180,335.938
1637884649.486,13.672,37.109,29.785,4.883,-291.992
1637884649.490,11.719,29.297,27.344,0.977,-407.227
1637884649.494,33.203,22.461,27.832,43.457,244.141
1637884649.498,37.109,23.926,26.367,44.922,494.141
1637884649.493,13.672,26.367,25.391,-8.301,-151.367
1637884649.497,4.883,25.879,25.391,-19.043,-399.902
1637884649.501,26.855,28.320,23.926,29.785,89.844
1637884649.505,37.598,25.879,27.832,56.152,542.969
1637884649.509,18.066,23.926,27.832,17.578,-4.395
1637884649.513,5.371,24.414,21.973,-13.184,-395.996
1637884649.517,20.020,20.996,25.879,13.184,-113.770
1637884649.520,40.527,23.438,29.297,56.641,504.395
1637884649.524,30.273,29.297,30.762,41.992,241.699
1637884649.528,5.371,29.297,30.762,4.883,-316.406
1637884649.532,9.766,24.902,25.879,13.184,-313.477
1637884649.536,35.156,18.555,20.996,48.340,367.188
1637884649.550,35.156,21.484,23.926,36.133,393.066
1637884649.554,14.160,26.855,28.809,-4.395,-208.984
1637884649.558,6.836,25.879,27.832,-9.277,-391.113
1637884649.562,30.762,21.973,29.297,35.645,163.574
1637884649.566,37.598,17.578,28.320,53.223,513.672
1637884649.570,13.184,23.438,24.902,18.066,-136.230
1637884649.574,5.859,29.297,29.297,-6.348,-443.359
1637884649.577,21.484,23.926,31.738,22.461,15.625
1637884649.581,33.203,22.949,29.297,48.340,537.598
1637884649.585,23.438,29.785,28.320,13.184,46.387
1637884649.589,11.719,29.785,28.809,-5.371,-380.371
1637884649.593,21.973,24.902,28.809,20.508,-124.023
1637884649.587,43.457,25.391,30.762,50.781,468.750
1637884649.591,33.691,26.367,27.832,32.715,251.953
1637884649.595,11.230,22.949,24.902,5.859,-289.551
1637884649.599,15.137,20.020,26.367,13.672,-327.148
1637884649.603,42.969,23.926,33.203,40.039,296.875
1637884649.607,45.410,32.227,37.598,41.016,386.719
1637884649.611,19.043,31.250,28.809,4.395,-218.262
1637884649.614,10.742,25.879,26.367,-7.812,-392.578
1637884649.618,35.645,20.020,26.367,33.203,140.625
1637884649.622,42.969,22.461,23.438,44.922,504.395
1637884649.626,19.531,23.926,30.762,9.766,-57.617
1637884649.630,12.695,17.090,31.738,-10.254,-410.156
1637884649.643,30.762,18.555,29.297,21.484,-34.180
1637884649.647,45.410,26.855,30.273,54.688,543.945
1637884649.651,28.320,27.832,27.832,29.297,112.305
1637884649.655,12.695,25.391,27.832,-4.395,-394.531
1637884649.659,19.043,23.438,25.391,2.930,-238.770
1637884649.663,34.180,20.020,27.832,49.316,442.383
1637884649.667,24.902,22.461,22.949,41.992,311.035
1637884649.670,5.859,24.414,14.160,-2.930,-289.551
1637884649.674,7.812,24.414,26.367,-5.371,-371.582
1637884649.678,34.668,25.391,30.762,36.621,275.879
1637884649.682,37.109,30.273,23.926,43.457,472.656
1637884649.686,10.254,28.809,25.391,4.395,-154.785
1637884649.680,6.348,25.391,27.832,-5.371,-458.008
1637884649.684,32.715,21.973,27.344,39.551,32.227
1637884649.688,44.434,25.391,23.438,55.664,507.812
1637884649.692,21.484,29.785,24.902,13.184,-26.855
1637884649.696,9.277,29.297,28.320,-8.789,-380.859
1637884649.700,31.250,27.832,33.691,26.855,-91.309
1637884649.704,49.805,26.367,29.785,58.594,520.996
1637884649.707,32.227,28.320,23.438,22.949,167.480
1637884649.711,11.230,30.273,24.902,-11.230,-332.031
1637884649.715,22.461,28.809,28.320,5.859,-250.977
1637884649.719,48.828,29.785,31.738,44.434,378.418
1637884649.723,42.969,31.738,27.344,31.250,356.445
1637884649.737,21.973,31.738,23.438,0.977,-247.070
1637884649.741,20.020,29.785,21.973,0.977,-410.156
1637884649.745,45.410,31.738,27.832,37.109,207.520
1637884649.749,45.410,32.227,29.297,49.316,492.676
1637884649.753,16.113,30.762,21.973,10.254,-146.973
1637884649.757,6.348,27.344,26.367,-14.648,-399.414
1637884649.761,34.180,25.879,30.762,25.391,38.574
1637884649.764,47.363,27.344,30.273,52.246,500.977
1637884649.768,20.020,30.273,30.762,16.602,52.734
1637884649.772,3.906,31.738,26.855,-7.812,-345.703
1637884649.776,20.996,32.227,29.297,14.648,-143.555
1637884649.780,43.457,31.250,30.762,48.340,476.074
1637884649.775,29.785,27.832,30.762,29.297,202.148
1637884649.779,3.906,24.414,32.715,-6.836,-378.418
1637884649.783,8.301,20.020,30.273,3.906,-308.105
1637884649.787,36.621,20.996,32.715,46.875,371.094
1637884649.791,32.715,29.785,33.691,39.062,394.043
1637884649.795,11.230,30.762,34.180,4.395,-216.309
1637884649.799,8.301,26.855,30.762,1.953,-437.012
1637884649.802,31.738,25.391,25.391,35.645,151.855
1637884649.806,43.945,32.227,31.250,48.828,555.176
1637884649.810,22.949,38.086,31.250,11.719,-87.402
1637884649.814,7.812,30.762,28.809,-8.789,-431.152
1637884649.818,29.785,21.484,35.156,29.297,20.996
1637884649.830,45.410,22.949,35.645,56.152,561.523
1637884649.834,20.020,26.855,30.762,22.461,78.125
1637884649.838,3.906,29.297,31.250,-10.254,-444.336
1637884649.842,16.602,27.832,32.715,16.113,-253.906
1637884649.846,34.668,20.020,33.691,53.711,483.887
1637884649.850,26.855,22.949,33.203,29.297,282.227
1637884649.854,8.301,26.367,17.090,-5.371,-333.008
1637884649.857,13.672,27.344,17.578,-0.488,-316.406
1637884649.861,41.504,31.738,37.109,44.434,370.117
1637884649.865,38.086,27.832,35.156,46.387,477.051
1637884649.869,15.137,24.414,27.832,10.742,-173.340
1637884649.873,14.648,27.344,28.320,-3.418,-413.086
1637884649.876,30.762,26.855,28.320,9.277,-36.621
1637884649.880,12.207,21.973,29.297,-3.906,-416.504
1637884649.884,31.250,20.020,31.738,25.879,-52.246
1637884649.888,48.828,24.414,28.809,56.152,542.480
1637884649.892,28.809,22.949,27.832,36.133,156.250
1637884649.895,11.719,23.926,37.109,4.883,-352.051
1637884649.899,22.949,27.832,36.133,20.508,-230.957
1637884649.903,40.039,23.926,29.785,54.688,425.781
1637884649.907,25.879,23.438,35.645,35.156,300.781
1637884649.911,12.207,24.414,35.645,-0.977,-332.520
1637884649.924,15.625,22.461,31.250,1.465,-375.488
1637884649.928,36.133,22.949,30.762,37.109,243.652
1637884649.932,40.039,24.902,29.297,41.016,436.035
1637884649.936,20.020,28.320,27.344,5.371,-130.371
1637884649.940,11.230,31.738,26.855,-4.395,-374.023
1637884649.944,32.715,29.297,25.879,32.227,95.215
1637884649.948,50.293,31.738,28.320,59.570,565.918
1637884649.951,31.738,35.156,27.344,33.691,16.602
1637884649.955,13.672,28.809,20.020,-4.883,-420.898
1637884649.959,24.414,19.043,26.855,10.742,-102.539
1637884649.963,40.527,19.043,31.738,50.781,522.949
1637884649.967,24.414,24.902,21.973,30.273,177.734
1637884649.962,2.441,24.902,21.484,-9.766,-370.605
1637884649.966,9.277,23.438,30.273,3.418,-260.254
1637884649.970,36.133,25.879,34.668,51.758,412.598
1637884649.974,29.297,26.367,27.832,40.039,353.516
1637884649.978,9.277,28.809,19.043,-1.465,-267.578
1637884649.982,12.207,27.344,24.902,0.000,-419.922
1637884649.986,35.645,23.438,27.832,43.457,216.309
1637884649.989,43.945,29.297,22.949,50.293,539.062
1637884649.993,21.484,36.133,25.879,12.207,-103.516
1637884649.997,3.906,28.320,27.832,-9.766,-432.129
1637884650.001,23.438,17.578,28.809,23.926,38.574
1637884650.005,41.016,19.043,24.414,54.688,573.730
1637884650.018,19.531,22.949,23.438,26.367,59.570
1637884650.022,1.953,20.020,25.879,-3.418,-393.555
1637884650.026,18.555,22.949,30.273,15.625,-159.180
1637884650.030,40.527,26.855,31.738,54.688,498.047
1637884650.034,28.320,29.297,27.344,31.250,241.699
1637884650.038,6.348,29.297,25.879,-6.836,-354.004
1637884650.042,11.230,26.855,23.926,2.930,-324.219
1637884650.045,39.551,29.785,29.785,44.922,374.512
1637884650.049,39.551,28.809,34.180,43.945,429.199
1637884650.053,19.043,25.879,30.273,8.789,-157.227
1637884650.057,12.695,23.926,29.297,9.766,-386.230
1637884650.061,40.039,22.949,28.320,51.270,124.512
1637884650.055,53.711,27.344,27.344,59.082,535.156
1637884650.059,24.414,27.344,22.949,12.695,-95.703
1637884650.063,11.719,26.367,22.949,-11.719,-460.938
1637884650.067,36.133,26.367,28.809,24.902,-35.645
1637884650.071,49.316,24.414,29.297,48.340,515.625
1637884650.075,28.809,26.855,31.738,24.902,87.891
1637884650.079,13.672,23.926,29.785,3.418,-362.793
1637884650.082,27.344,12.207,30.762,15.625,-188.965
1637884650.086,55.664,21.484,35.156,57.617,447.754
1637884650.090,44.922,32.227,24.414,37.109,245.117
1637884650.094,10.254,26.367,23.926,-8.789,-340.820
1637884650.098,8.301,21.484,29.785,-1.953,-361.816
1637884650.112,40.527,17.090,31.738,44.922,323.242
1637884650.116,42.480,22.461,30.273,48.340,444.336
1637884650.120,21.484,26.855,29.297,8.789,-271.973
1637884650.124,16.602,25.391,28.809,-4.395,-502.441
1637884650.128,32.227,24.414,24.902,32.715,107.422
1637884650.132,43.457,24.414,24.902,52.246,560.547
1637884650.136,19.531,24.902,25.879,5.859,-11.230
1637884650.139,3.906,27.832,21.973,-27.832,-426.758
1637884650.143,29.785,27.344,27.344,14.648,-122.559
1637884650.147,45.898,26.367,29.297,48.828,541.992
1637884650.151,22.461,29.785,20.508,15.137,187.988
1637884650.155,1.465,29.297,21.973,-14.160,-354.492
1637884650.149,8.789,28.320,26.367,1.465,-242.188
1637884650.153,8.789,22.461,18.066,14.160,433.594
1637884650.157,-12.207,27.832,16.602,-11.719,351.074
1637884650.161,-1.953,38.086,23.926,-17.090,-238.281
1637884650.165,5.859,37.109,18.066,-8.301,-385.742
1637884650.169,22.949,31.250,19.043,26.367,216.797
1637884650.173,28.809,32.715,23.926,31.738,458.496
1637884650.176,-12.207,36.621,23.926,-17.090,-177.246
1637884650.180,-46.387,33.203,25.879,-52.246,-413.574
1637884650.184,-17.578,41.504,24.902,-23.438,82.031
1637884650.188,14.160,51.758,13.672,7.812,563.965
1637884650.192,-6.836,49.805,9.277,-22.461,-1.953
1637884650.205,-30.273,50.781,16.602,-46.387,-491.699
1637884650.209,-11.230,58.105,22.461,-21.484,-181.152
1637884650.213,-9.277,53.223,23.926,-11.719,469.238
1637884650.217,-53.223,68.359,27.832,-50.781,168.945
1637884650.221,-69.824,82.520,24.414,-80.566,-326.172
1637884650.225,-55.664,66.895,20.996,-62.500,-252.930
1637884650.229,-28.320,72.266,16.602,-19.043,396.484
1637884650.232,-51.758,80.566,13.672,-48.340,363.770
1637884650.236,-104.980,80.566,16.113,-109.375,-236.328
1637884650.240,-103.027,88.379,20.996,-105.469,-390.625
1637884650.244,-70.312,90.332,26.367,-61.035,185.059
1637884650.248,-59.570,84.473,22.949,-51.270,510.742
1637884650.244,-67.871,88.379,23.926,-75.195,-110.352
1637884650.248,-93.750,87.891,21.484,-101.562,-425.293
1637884650.252,-81.055,87.402,17.578,-83.496,37.109
1637884650.256,-39.551,87.402,26.855,-39.062,528.320
1637884650.260,-52.246,83.984,28.320,-59.570,40.527
1637884650.264,-64.941,84.961,25.879,-79.102,-385.742
1637884650.268,-48.828,80.566,27.832,-51.758,-175.293
1637884650.271,-33.203,77.148,25.391,-16.113,483.398
1637884650.275,-60.547,74.219,23.926,-41.504,236.328
1637884650.279,-82.520,68.848,26.367,-96.191,-382.812
1637884650.283,-68.359,67.383,30.762,-72.266,-364.746
1637884650.287,-34.180,63.477,31.738,-17.090,348.145
1637884650.299,-26.367,62.988,28.809,-28.320,433.594
1637884650.303,-73.730,57.617,24.414,-84.961,-180.664
1637884650.307,-81.543,63.965,31.250,-87.402,-379.883
1637884650.311,-38.574,64.941,35.645,-36.133,156.738
1637884650.315,-37.598,48.340,25.391,-28.320,532.715
1637884650.319,-51.270,47.363,25.391,-52.246,-69.824
1637884650.323,-52.246,45.410,28.320,-63.965,-395.020
1637884650.326,-28.320,36.621,37.109,-23.926,-6.348
1637884650.330,-15.625,42.969,40.039,12.207,526.855
1637884650.334,-42.969,54.199,33.203,-35.156,92.285
1637884650.338,-53.223,47.852,34.668,-77.148,-321.289
1637884650.342,-32.227,39.551,41.992,-36.621,-181.152
1637884650.337,-4.395,36.133,41.016,17.578,422.363
1637884650.341,-16.602,37.598,36.133,-5.859,275.879
1637884650.345,-34.668,44.922,33.691,-45.410,-328.613
1637884650.349,-13.184,44.922,33.203,-23.438,-331.543
1637884650.353,18.066,37.109,37.109,25.391,309.570
1637884650.357,18.555,39.551,37.598,33.203,428.711
1637884650.361,-1.465,40.527,31.250,3.906,-219.727
1637884650.364,-7.324,38.574,31.250,-17.090,-451.660
1637884650.368,8.301,42.480,38.086,2.441,81.543
1637884650.372,14.648,43.457,39.062,18.555,497.070
1637884650.376,-6.348,38.086,34.180,-7.812,-67.871
1637884650.380,-7.324,36.133,27.832,-15.625,-434.570
1637884650.393,16.113,34.668,31.250,20.996,-82.031
1637884650.397,31.738,31.250,41.504,44.922,494.629
1637884650.401,18.066,33.691,34.668,20.996,137.207
1637884650.405,1.953,33.203,33.203,-2.930,-347.656
1637884650.409,10.254,27.832,38.086,15.625,-262.695
1637884650.413,36.621,23.926,35.156,49.316,406.738
1637884650.417,35.156,28.320,33.203,35.156,362.793
1637884650.420,27.832,30.273,33.691,20.508,-240.723
1637884650.424,38.086,22.949,36.133,37.109,-409.668
1637884650.428,53.223,22.461,32.715,66.406,229.492
1637884650.432,57.129,20.996,29.297,63.965,511.719
1637884650.436,49.316,17.578,30.762,44.434,-131.836
1637884650.430,49.316,15.137,31.250,37.109,-412.109
1637884650.434,73.242,8.789,32.227,76.172,70.801
1637884650.438,88.379,6.836,34.668,112.305,538.086
1637884650.442,76.660,6.348,33.203,84.473,0.488
1637884650.446,69.336,5.859,28.320,57.129,-377.441
1637884650.450,87.891,0.488,33.691,83.008,-95.703
1637884650.454,114.258,-3.906,39.551,129.883,507.812
1637884650.457,100.586,-2.930,30.762,107.422,198.730
1637884650.461,95.215,-0.977,29.785,76.172,-306.152
1637884650.465,116.699,-4.883,36.133,96.680,-248.047
1637884650.469,130.859,-9.277,34.668,135.742,369.629
1637884650.473,114.746,-7.812,31.738,132.812,349.609
1637884650.487,98.145,-10.742,34.668,97.656,-283.691
1637884650.491,97.656,-11.230,35.645,88.867,-446.777
1637884650.495,111.328,-15.137,34.180,118.164,142.090
1637884650.499,124.512,-15.625,35.156,128.906,492.676
1637884650.503,115.234,-14.160,34.668,98.145,-81.543
1637884650.507,107.422,-19.043,37.109,83.496,-373.047
1637884650.511,118.652,-18.066,37.109,106.934,6.348
1637884650.514,122.070,-12.695,34.180,121.582,530.273
1637884650.518,105.469,-7.324,32.715,94.727,78.613
1637884650.522,90.820,-6.348,30.273,65.918,-383.301
1637884650.526,98.145,-6.836,28.809,84.961,-155.762
1637884650.530,118.652,-8.301,31.250,123.535,487.793
1637884650.524,112.793,-12.695,31.250,97.168,269.531
1637884650.528,86.426,-19.043,33.691,56.152,-300.781
1637884650.532,83.496,-13.184,39.551,67.383,-313.477
1637884650.536,105.957,-3.418,41.504,108.887,335.938
1637884650.540,101.562,-2.441,39.551,112.305,418.457
1637884650.544,80.078,-3.418,34.668,75.195,-193.848
1637884650.548,73.730,-3.418,31.738,50.293,-393.066
1637884650.551,90.332,-3.418,37.598,85.449,153.809
1637884650.555,98.633,-1.953,36.133,102.051,537.598
1637884650.559,76.172,-0.488,34.668,66.406,-45.410
1637884650.563,56.641,-1.953,39.551,41.992,-382.812
1637884650.567,69.824,-6.348,43.945,65.430,-10.742
1637884650.580,89.355,-4.395,38.086,95.215,565.918
1637884650.584,72.754,2.930,32.227,65.918,146.973
1637884650.588,50.293,2.441,38.574,40.039,-330.566
1637884650.592,64.453,2.441,38.574,58.594,-202.148
1637884650.596,89.355,7.324,32.715,92.285,446.777
1637884650.600,75.195,10.742,34.668,77.637,280.273
1637884650.604,53.711,13.672,29.297,33.203,-326.172
1637884650.607,51.758,13.184,25.879,32.227,-387.207
1637884650.611,67.871,8.301,38.086,76.660,250.488
1637884650.615,70.312,12.207,43.945,80.078,449.707
1637884650.619,45.410,11.719,38.086,42.480,-154.297
1637884650.623,35.156,8.301,36.133,27.832,-376.953
1637884650.618,55.664,7.324,39.551,57.129,114.258
1637884650.622,67.383,7.812,38.086,79.590,520.020
1637884650.626,44.434,12.207,31.738,43.945,-9.277
1637884650.630,24.902,10.742,34.180,5.371,-361.816
1637884650.634,41.992,10.742,37.598,34.180,-84.961
1637884650.638,61.035,12.695,33.203,67.871,484.863
1637884650.642,50.293,17.090,30.273,41.504,131.836
1637884650.645,34.668,17.090,29.297,13.672,-348.145
1637884650.649,35.645,13.672,28.809,26.367,-244.141
1637884650.653,60.547,14.160,28.320,62.500,396.484
1637884650.657,58.105,20.020,26.855,55.664,313.965
1637884650.661,32.715,22.949,30.762,26.855,-265.625
1637884650.674,30.762,16.113,32.715,25.391,-339.355
1637884650.678,59.570,18.555,31.250,58.594,224.121
1637884650.682,60.059,24.902,31.738,62.500,419.922
1637884650.686,32.227,28.320,36.621,30.273,-161.133
1637884650.690,25.879,29.785,29.297,15.625,-388.184
1637884650.694,41.504,21.484,23.926,41.504,53.223
1637884650.698,53.223,23.438,28.809,66.406,543.945
1637884650.701,42.480,28.809,26.855,29.297,30.273
1637884650.705,25.391,23.438,26.855,-3.906,-408.691
1637884650.709,32.227,20.020,27.832,21.484,-138.184
1637884650.713,51.270,23.438,28.809,60.547,478.516
1637884650.717,39.551,26.367,31.738,34.668,193.848
1637884650.713,19.531,23.438,24.902,-6.348,-294.922
1637884650.717,15.625,19.531,17.578,4.883,-244.629
1637884650.721,38.086,18.555,24.414,48.828,392.578
1637884650.725,41.992,24.902,30.273,49.805,412.598
1637884650.729,20.020,26.367,26.855,3.418,-194.336
1637884650.733,17.090,19.531,24.414,-1.953,-391.602
1637884650.737,40.527,19.531,29.785,44.434,131.836
1637884650.740,48.828,31.250,29.297,60.547,484.863
1637884650.744,31.738,32.227,26.367,28.809,-106.445
1637884650.748,21.973,22.461,27.344,9.766,-410.645
1637884650.752,35.156,20.508,32.227,31.738,30.273
1637884650.756,43.945,23.438,31.738,43.457,541.016
1637884650.768,28.320,24.414,28.320,16.113,30.273
1637884650.772,20.020,27.832,24.414,0.977,-379.395
1637884650.776,35.645,27.832,25.879,17.578,-128.418
1637884650.780,54.199,25.391,30.273,53.223,478.516
1637884650.784,45.410,29.785,28.809,40.039,262.695
1637884650.788,22.949,31.250,25.879,2.441,-274.414
1637884650.792,27.832,27.832,27.344,9.277,-299.316
1637884650.795,53.223,27.344,34.180,61.035,317.871
1637884650.799,42.480,24.414,33.203,53.711,431.641
1637884650.803,14.648,24.414,23.926,-7.812,-183.594
1637884650.807,10.254,25.879,25.391,-13.184,-341.797
1637884650.811,33.691,22.461,30.762,34.180,133.301
1637884650.806,40.039,23.926,27.832,47.852,502.441
1637884650.810,16.113,28.320,21.484,7.324,-62.988
1637884650.814,5.371,25.391,19.531,-17.090,-431.641
1637884650.818,26.367,26.367,21.484,13.672,-89.355
1637884650.822,43.457,30.762,20.996,40.527,484.863
1637884650.826,26.855,32.715,15.137,12.695,99.121
1637884650.830,8.301,30.273,16.113,-16.602,-377.441
1637884650.833,16.602,27.832,20.508,0.977,-240.723
1637884650.837,39.551,33.203,16.113,36.133,403.320
1637884650.841,33.203,34.180,13.672,16.113,266.113
1637884650.845,12.207,30.762,15.137,-20.508,-297.363
1637884650.849,11.230,27.344,13.184,-14.648,-391.602
1637884650.862,37.598,26.367,18.066,29.785,243.652
1637884650.866,41.504,31.250,20.508,37.598,454.102
1637884650.870,17.090,32.227,18.555,-5.859,-167.969
1637884650.874,11.719,37.109,21.973,-12.207,-438.477
1637884650.878,34.180,30.273,24.414,29.297,44.922
1637884650.882,47.852,18.555,20.020,42.969,520.020
1637884650.886,27.344,27.832,12.695,3.906,-7.324
1637884650.889,6.348,31.250,10.742,-18.066,-347.168
1637884650.893,27.344,26.367,17.578,22.461,-48.340
1637884650.897,45.410,25.879,20.508,55.176,496.094
1637884650.901,32.715,31.738,19.043,22.949,137.695
1637884650.905,19.531,30.273,24.414,-4.395,-322.266
1637884650.899,24.902,22.949,28.809,16.113,-246.582
1637884650.903,53.223,23.926,21.484,58.594,388.672
1637884650.907,49.805,25.391,18.555,49.316,340.332
1637884650.911,21.484,22.949,22.461,11.719,-284.668
1637884650.915,21.973,19.531,26.367,16.602,-384.766
1637884650.919,48.828,21.973,34.668,63.477,208.008
1637884650.923,51.758,25.391,32.715,63.477,445.801
1637884650.926,30.762,23.926,27.344,19.043,-124.512
1637884650.930,21.973,20.996,27.832,1.953,-359.375
1637884650.934,41.992,18.555,30.762,34.668,20.508
1637884650.938,58.594,21.973,28.809,64.941,513.184
1637884650.942,37.598,30.273,26.367,37.598,15.137
1637884650.956,19.043,31.738,27.832,10.742,-446.777
1637884650.960,30.762,26.855,28.320,26.855,-153.809
1637884650.964,51.758,26.367,26.367,51.758,467.285
1637884650.968,42.480,29.297,26.367,42.480,222.656
1637884650.972,21.973,27.832,27.832,15.625,-342.773
1637884650.976,29.785,23.926,22.949,11.230,-334.961
1637884650.980,58.594,27.832,29.297,49.805,346.191
1637884650.983,52.734,34.668,30.762,48.340,389.648
1637884650.987,17.090,30.273,22.949,6.348,-235.840
1637884650.991,9.766,25.879,25.391,0.000,-433.594
1637884650.995,35.645,25.879,29.297,43.457,167.480
1637884650.999,41.504,29.785,28.809,59.082,540.527
1637884650.993,17.090,30.762,20.508,17.578,-72.754
1637884650.997,0.977,29.785,12.695,-8.301,-395.996
1637884651.001,17.090,29.297,25.879,23.438,19.043
1637884651.005,39.551,26.367,27.832,46.875,561.035
1637884651.009,24.902,26.855,14.648,8.789,54.199
1637884651.013,2.930,32.715,21.484,-21.484,-424.805
1637884651.017,16.113,32.227,31.738,4.395,-155.273
1637884651.020,41.016,26.367,29.785,44.922,472.656
1637884651.024,28.320,28.320,23.926,23.438,272.949
1637884651.028,9.277,29.785,24.414,-7.812,-306.152
1637884651.032,19.531,26.367,30.762,2.930,-367.676
1637884651.036,41.504,26.855,32.227,45.410,323.730
1637884651.068,30.762,25.391,23.438,37.598,463.867
1637884651.072,5.859,23.438,23.438,-1.953,-201.172
1637884651.076,0.977,21.484,27.344,-7.812,-430.664
1637884651.080,22.949,18.066,25.879,34.180,135.254
1637884651.084,32.715,20.996,29.297,53.711,551.270
1637884651.088,14.160,26.367,28.809,17.090,-35.645
1637884651.092,7.324,23.438,24.902,0.488,-418.945
1637884651.095,19.531,18.555,28.809,28.809,-80.566
1637884651.099,30.273,13.184,28.809,55.176,555.176
1637884651.103,17.578,13.672,25.391,35.156,175.781
1637884651.107,1.953,20.996,29.297,-0.488,-335.449
1637884651.111,10.254,26.855,34.180,4.395,-188.965
1637884651.089,36.621,29.297,34.180,46.875,448.242
1637884651.093,32.715,26.855,30.273,44.434,363.770
1637884651.097,6.836,25.391,28.320,3.418,-240.723
1637884651.101,5.371,25.391,27.832,3.906,-393.066
1637884651.105,30.273,21.484,28.809,46.875,246.582
1637884651.109,33.203,23.926,28.320,51.758,482.422
1637884651.113,11.719,26.855,23.926,16.113,-166.016
1637884651.116,5.371,24.902,21.484,-4.883,-438.477
1637884651.120,27.344,22.949,23.438,21.973,36.133
1637884651.124,41.992,26.855,23.926,47.363,523.438
1637884651.128,23.438,25.391,25.879,19.043,35.156
1637884651.132,8.789,20.020,21.484,-9.766,-391.602
1637884651.144,29.297,26.855,26.367,21.484,-97.168
1637884651.148,49.316,32.227,32.715,62.988,511.719
1637884651.152,26.367,29.297,30.273,33.203,128.906
1637884651.156,5.859,27.344,28.320,-8.789,-372.070
1637884651.160,17.578,26.367,26.855,4.395,-247.070
1637884651.164,41.992,22.461,27.344,52.734,391.602
1637884651.168,36.133,24.902,26.367,44.434,334.961
1637884651.171,14.160,31.250,27.832,-4.883,-269.531
1637884651.175,9.766,29.785,34.668,-7.324,-400.879
1637884651.179,32.715,27.832,30.762,34.668,186.523
1637884651.183,40.527,31.250,27.832,47.852,495.605
1637884651.187,21.484,32.715,31.250,15.137,-127.930
1637884651.181,8.301,30.762,29.785,0.000,-437.988
1637884651.185,24.414,28.809,28.809,31.738,36.133
1637884651.189,41.016,26.367,23.438,49.316,538.086
1637884651.193,21.484,27.344,22.461,20.020,35.645
1637884651.197,5.371,27.832,23.438,-9.766,-387.207
1637884651.201,20.996,25.391,26.855,10.742,-128.906
1637884651.205,42.969,22.949,32.715,48.828,504.883
1637884651.208,32.227,26.367,31.250,29.297,250.977
1637884651.212,12.695,24.902,25.391,-5.859,-291.992
1637884651.216,18.555,20.508,23.438,-4.395,-273.926
1637884651.220,43.457,19.531,23.926,41.992,376.465
1637884651.224,41.504,23.926,27.344,39.062,416.992
1637884651.238,22.461,28.809,28.320,-5.371,-252.930
1637884651.242,18.555,27.832,23.926,-11.719,-450.195
1637884651.246,34.668,24.902,24.414,21.973,123.047
1637884651.250,35.156,24.902,28.320,33.203,509.766
1637884651.254,12.695,23.926,25.879,-2.441,-102.051
1637884651.258,4.395,24.902,27.344,-13.184,-407.227
1637884651.262,20.508,24.414,33.691,16.602,-9.766
1637884651.265,37.109,22.949,34.180,39.062,534.668
1637884651.269,18.066,27.832,28.320,18.066,112.305
1637884651.273,-1.465,27.832,22.461,-7.812,-351.074
1637884651.277,10.742,21.484,23.438,14.648,-163.086
1637884651.281,38.574,26.367,32.715,52.734,464.844
1637884651.276,28.320,34.180,29.297,34.180,319.336
1637884651.280,-0.977,24.902,20.020,-10.254,-264.160
1637884651.284,2.441,22.949,22.461,-10.742,-337.891
1637884651.288,31.250,22.949,27.344,42.480,304.199
1637884651.292,34.668,21.973,27.344,41.504,397.461
1637884651.296,11.719,27.832,22.461,2.441,-215.332
1637884651.300,4.883,27.832,24.902,-9.766,-411.133
1637884651.303,23.926,26.367,27.832,19.531,105.469
1637884651.307,35.156,26.855,27.344,42.480,548.828
1637884651.311,12.695,24.902,26.367,7.324,-56.152
1637884651.315,-2.441,23.438,29.785,-21.973,-469.727
1637884651.319,19.043,23.438,25.879,6.836,-58.105
1637884651.330,41.016,21.484,20.508,48.828,528.809
1637884651.334,22.949,25.391,24.902,32.227,114.258
1637884651.338,10.254,34.668,32.715,3.418,-351.562
1637884651.342,29.297,33.691,33.691,17.090,-212.402
1637884651.346,50.293,28.320,27.344,41.992,431.152
1637884651.350,40.039,27.344,19.531,30.273,341.797
1637884651.354,16.602,23.438,28.809,-0.977,-266.113
1637884651.357,15.137,21.973,33.203,-5.859,-385.254
1637884651.361,38.574,23.926,31.738,39.062,235.840
1637884651.365,41.504,25.879,33.203,52.246,472.656
1637884651.369,17.090,24.902,25.879,14.648,-162.598
1637884651.373,12.207,25.391,27.832,-14.648,-406.738
1637884651.368,33.691,22.949,31.738,12.207,57.617
1637884651.372,49.805,20.020,32.227,44.922,531.250
1637884651.376,35.645,27.344,31.738,23.438,12.695
1637884651.380,14.648,29.785,29.785,2.930,-372.070
1637884651.384,21.484,25.879,28.320,20.508,-92.285
1637884651.388,41.016,25.391,27.344,50.293,479.004
1637884651.392,31.250,27.344,25.879,30.762,178.711
1637884651.395,12.695,29.785,28.809,-0.488,-344.238
1637884651.399,18.066,26.855,27.344,15.625,-320.312
1637884651.403,41.016,22.949,28.809,52.246,354.492
1637884651.407,35.156,25.391,31.250,37.598,376.465
1637884651.411,17.090,23.926,29.785,3.906,-215.820
1637884651.424,15.137,24.414,29.785,0.977,-334.473
1637884651.428,40.039,28.320,31.738,46.875,199.219
1637884651.432,46.875,29.297,33.203,63.965,459.961
1637884651.436,17.578,28.809,27.832,22.461,-123.047
1637884651.440,6.348,29.297,22.461,-3.418,-414.551
1637884651.444,26.367,26.855,26.367,27.344,1.953
1637884651.448,41.016,27.344,27.344,52.734,514.160
1637884651.451,24.414,27.832,24.414,18.555,-2.441
1637884651.455,9.766,26.855,26.367,-7.812,-407.227
1637884651.459,24.902,27.832,23.438,13.672,-153.320
1637884651.463,52.246,32.715,24.414,49.316,486.816
1637884651.467,38.086,30.762,28.320,33.691,278.320
1637884651.463,17.090,31.738,32.715,-0.977,-296.875
1637884651.467,25.879,32.227,33.691,7.812,-298.340
1637884651.471,42.480,26.855,29.785,54.199,375.000
1637884651.475,36.133,25.391,26.367,46.875,470.703
1637884651.479,15.625,26.367,23.926,2.441,-172.852
1637884651.483,11.230,29.785,27.344,-2.441,-437.500
1637884651.487,36.621,30.762,28.809,37.109,132.812
1637884651.490,46.387,31.738,28.320,50.781,518.066
1637884651.494,22.461,34.180,24.414,11.719,-88.379
1637884651.498,11.230,30.762,25.391,-3.418,-415.527
1637884651.502,29.297,29.785,33.691,42.480,-15.137
1637884651.506,44.922,30.762,36.133,62.988,543.945
1637884651.518,26.855,26.367,27.832,20.020,79.590
1637884651.522,12.695,28.809,28.809,-4.395,-369.629
1637884651.526,25.879,28.320,34.668,16.602,-157.227
1637884651.530,41.504,19.043,28.320,50.781,480.469
1637884651.534,26.855,23.926,20.996,36.621,283.691
1637884651.538,8.789,30.273,18.555,2.441,-310.059
1637884651.542,8.789,24.902,25.391,4.395,-375.000
1637884651.545,28.809,19.043,25.391,51.270,252.930
1637884651.549,28.320,22.461,19.531,45.898,431.152
1637884651.553,5.859,26.367,22.949,-11.230,-182.129
1637884651.557,2.441,25.391,28.809,-19.043,-408.203
1637884651.561,31.738,24.414,30.762,22.949,75.684
1637884651.556,51.758,28.809,32.715,41.992,538.086
1637884651.560,28.809,29.297,33.203,8.789,-27.832
1637884651.564,11.719,25.879,24.414,-11.230,-458.008
1637884651.568,30.762,23.438,20.508,20.020,-93.262
1637884651.572,52.734,26.367,26.367,56.152,511.230
1637884651.576,41.016,32.715,24.902,30.273,151.367
1637884651.580,24.902,32.227,22.461,0.000,-329.590
1637884651.583,37.598,27.832,22.949,17.090,-244.141
1637884651.587,59.082,29.785,26.855,54.688,396.973
1637884651.591,49.805,26.367,26.855,43.945,308.105
1637884651.595,25.391,22.949,25.391,2.441,-279.297
1637884651.599,20.508,31.738,24.414,-3.906,-346.191
1637884651.612,43.945,31.250,21.484,44.922,243.652
1637884651.616,48.828,24.902,29.297,54.199,472.656
1637884651.620,22.949,27.832,28.809,11.719,-147.461
1637884651.624,12.207,28.320,18.066,-3.906,-435.059
1637884651.628,35.156,25.391,29.297,31.738,48.828
1637884651.632,47.852,27.344,30.273,65.430,541.992
1637884651.636,30.762,28.320,17.090,37.598,15.625
1637884651.639,10.742,27.344,20.020,-2.441,-414.062
1637884651.643,19.531,26.855,26.367,19.531,-145.996
1637884651.647,44.922,31.738,28.320,56.641,500.488
1637884651.651,33.203,32.715,25.391,37.109,213.379
1637884651.655,12.207,33.203,26.855,2.930,-319.824
1637884651.649,18.066,30.273,29.785,15.625,-243.164
1637884651.653,39.551,20.996,27.832,59.082,375.977
1637884651.657,35.156,25.879,23.438,48.828,350.586
1637884651.661,10.742,25.879,20.508,5.859,-243.652
1637884651.665,11.230,20.996,24.902,-4.883,-391.602
1637884651.669,38.086,19.531,26.367,41.504,164.551
1637884651.673,43.457,18.555,23.438,54.199,480.469
1637884651.676,17.578,19.531,19.531,14.160,-112.793
1637884651.680,5.371,24.902,25.391,4.883,-386.230
1637884651.684,29.785,27.344,31.738,38.086,25.879
1637884651.688,46.387,25.879,31.250,56.641,500.977
1637884651.692,25.879,30.273,36.621,30.762,66.406
1637884651.706,10.742,32.715,34.180,7.324,-336.914
1637884651.710,21.973,23.926,26.367,25.879,-160.156
1637884651.714,41.504,21.973,26.367,54.688,461.426
1637884651.718,28.809,23.438,27.832,31.738,261.719
1637884651.722,7.324,24.414,27.344,-7.812,-325.684
1637884651.726,9.277,24.902,26.855,-0.977,-309.570
1637884651.730,34.668,23.926,29.297,46.875,342.773
1637884651.733,38.086,26.367,27.344,43.945,396.973
1637884651.737,16.602,30.762,26.367,6.348,-204.590
1637884651.741,11.230,29.297,28.809,-6.348,-397.461
1637884651.745,34.668,24.414,31.738,33.691,156.250
1637884651.749,49.805,26.855,31.250,54.688,507.324
1637884651.743,28.809,27.832,25.391,18.066,-112.793
1637884651.747,11.719,25.879,22.461,-5.859,-428.223
1637884651.751,30.762,29.785,27.344,33.203,-33.691
1637884651.755,49.805,34.668,28.320,58.105,554.199
1637884651.759,28.809,33.691,23.438,22.949,117.676
1637884651.763,12.207,30.762,24.902,-0.488,-371.582
1637884651.767,24.902,29.297,25.391,15.625,-173.340
1637884651.770,44.434,28.809,26.367,49.805,453.125
1637884651.774,38.574,34.668,28.320,39.551,291.992
1637884651.778,19.043,34.180,25.391,4.883,-284.180
1637884651.782,19.043,24.902,23.926,-1.465,-362.793
1637884651.786,41.016,20.996,24.414,34.668,241.699
1637884651.799,39.062,25.879,27.344,40.039,458.008
1637884651.803,14.648,28.809,23.438,2.930,-154.785
1637884651.807,12.207,27.832,15.625,-9.277,-459.961
1637884651.811,37.109,23.438,27.832,24.902,64.941
1637884651.815,40.039,26.855,30.762,40.039,525.391
1637884651.819,14.648,28.809,29.785,16.113,-50.781
1637884651.823,0.488,21.973,31.738,-4.395,-430.176
1637884651.826,17.578,22.461,31.738,12.207,-95.215
1637884651.830,41.016,21.973,33.691,47.363,514.160
1637884651.834,22.461,24.414,32.715,27.832,152.832
1637884651.838,0.977,24.414,24.414,-15.137,-368.652
1637884651.842,14.648,19.531,24.902,-9.277,-232.910
1637884651.837,38.086,22.949,30.762,34.668,416.016
1637884651.841,29.785,23.438,26.367,26.855,343.750
1637884651.845,9.766,21.973,27.344,-5.859,-237.793
1637884651.849,8.301,22.949,29.297,-1.465,-367.676
1637884651.853,31.738,20.508,32.715,39.062,233.887
1637884651.857,36.621,20.508,27.832,40.039,477.051
1637884651.861,13.672,20.508,20.508,0.977,-168.457
1637884651.864,2.930,18.066,24.414,-8.789,-395.508
1637884651.868,25.879,18.555,26.367,26.855,72.266
1637884651.872,41.992,15.625,23.438,44.922,497.559
1637884651.876,23.438,20.996,24.414,21.484,18.066
1637884651.880,13.184,27.832,23.926,-8.301,-343.262
1637884651.893,28.809,24.414,25.391,11.230,-103.027
1637884651.897,43.945,23.438,24.902,44.922,449.707
1637884651.901,29.785,28.320,21.484,24.414,160.645
1637884651.905,12.695,32.227,19.531,-8.301,-342.285
1637884651.909,18.555,22.949,22.461,-5.859,-263.672
1637884651.913,37.598,18.555,23.438,39.062,357.910
1637884651.917,30.762,25.879,17.578,29.785,366.699
1637884651.920,9.766,31.250,21.973,-3.418,-207.520
1637884651.924,7.324,26.855,27.832,-3.418,-352.539
1637884651.928,32.715,26.855,27.832,27.832,208.496
1637884651.932,42.480,27.344,22.461,36.621,495.117
1637884651.936,21.484,23.926,20.508,5.371,-97.168
1637884651.931,7.812,24.902,20.508,-8.301,-437.500
1637884651.935,27.832,20.020,23.438,26.855,-20.996
1637884651.939,45.898,20.996,24.902,59.082,544.434
1637884651.943,21.484,26.367,18.066,20.020,67.383
1637884651.947,1.953,25.879,22.949,-21.484,-396.484
1637884651.951,22.949,26.367,28.320,4.395,-160.156
1637884651.955,50.293,28.809,30.273,48.340,464.355
1637884651.958,33.691,29.785,29.297,28.320,203.125
1637884651.962,13.184,28.809,25.391,-7.324,-364.258
1637884651.966,21.973,22.461,23.438,-1.465,-355.469
1637884651.970,43.945,22.949,29.785,44.434,327.148
1637884651.974,43.945,28.809,30.762,48.828,427.246
1637884651.987,18.066,25.879,24.902,11.230,-250.977
1637884651.991,6.348,25.391,28.809,0.000,-472.656
1637884651.995,30.273,23.438,31.738,33.691,81.543
1637884651.999,41.992,25.391,27.832,56.152,518.555
1637884652.003,20.508,31.250,25.391,22.461,-28.809
1637884652.007,6.348,27.344,29.297,-1.953,-434.570
1637884652.011,23.926,21.484,35.156,22.949,-101.562
1637884652.014,39.551,22.949,34.668,44.922,539.551
1637884652.018,25.391,28.320,30.273,26.367,105.957
1637884652.022,12.695,30.762,31.250,1.465,-416.992
1637884652.026,20.020,26.367,30.762,15.137,-236.816
1637884652.030,38.574,24.414,27.832,47.852,417.969
1637884652.024,26.367,29.297,29.785,30.273,282.715
1637884652.028,2.930,27.344,26.855,-2.441,-260.742
1637884652.032,6.348,24.414,30.273,12.207,-319.824
1637884652.036,34.668,26.367,38.086,49.316,262.695
1637884652.040,38.574,26.367,29.785,40.527,439.941
1637884652.044,15.625,25.391,25.879,6.836,-149.414
1637884652.048,8.789,23.438,29.785,0.977,-364.746
1637884652.051,34.180,24.902,32.715,42.480,91.797
1637884652.055,47.852,26.367,34.180,59.082,508.301
1637884652.059,24.414,23.926,33.203,9.277,17.578
1637884652.063,4.395,24.414,32.227,-12.695,-364.746
1637884652.067,24.902,23.438,36.133,30.762,-119.629
1637884652.081,49.316,26.855,35.156,64.453,511.719
1637884652.085,34.180,30.273,32.227,32.715,155.273
1637884652.089,19.531,30.273,33.691,-0.488,-349.609
1637884652.093,26.367,29.297,38.574,16.113,-228.516
1637884652.097,50.781,29.297,40.039,62.012,415.039
1637884652.101,52.734,32.715,38.574,57.617,369.629
1637884652.105,29.785,35.645,32.715,9.766,-246.582
1637884652.108,24.902,29.297,30.273,-5.371,-398.926
1637884652.112,51.270,24.414,33.203,37.109,218.750
1637884652.116,60.547,31.250,26.855,52.246,504.395
1637884652.120,34.668,34.180,22.949,18.555,-121.094
1637884652.124,19.531,29.785,25.391,-6.836,-412.598
1637884652.118,39.062,27.832,29.785,29.297,40.039
1637884652.122,50.293,32.715,32.227,66.895,545.410
1637884652.126,27.832,38.086,28.809,39.062,51.758
1637884652.130,9.766,30.273,27.344,7.324,-361.816
1637884652.134,24.414,23.438,37.109,31.738,-134.766
1637884652.138,46.387,30.273,40.039,69.336,465.820
1637884652.142,28.320,32.715,28.320,36.133,207.031
1637884652.145,0.488,30.273,24.414,-7.812,-307.617
1637884652.149,7.324,31.738,25.879,1.953,-319.336
1637884652.153,37.109,31.738,31.250,47.363,294.434
1637884652.157,37.109,32.715,32.715,45.898,389.648
1637884652.161,17.578,34.668,28.809,7.324,-212.891
1637884652.174,15.137,30.273,28.320,3.906,-397.461
1637884652.178,41.016,29.785,29.297,45.898,159.180
1637884652.182,48.828,30.273,26.367,55.664,491.699
1637884652.186,20.508,30.273,21.973,15.625,-116.699
1637884652.190,9.766,27.832,25.879,-0.488,-395.996
1637884652.194,31.250,22.949,28.809,28.320,40.039
1637884652.198,45.410,27.832,24.902,47.363,519.043
1637884652.201,28.809,35.645,20.508,17.578,83.008
1637884652.205,16.602,34.668,17.578,0.488,-340.332
1637884652.209,27.832,27.832,22.461,19.531,-187.988
1637884652.213,49.316,30.273,24.902,54.688,453.125
1637884652.217,39.062,33.203,23.438,32.227,259.277
1637884652.212,14.648,28.320,21.973,-11.230,-320.312
1637884652.216,19.043,27.344,26.855,0.000,-337.402
1637884652.220,43.457,26.367,31.250,47.852,310.547
1637884652.224,41.504,29.785,29.785,53.711,437.500
1637884652.228,20.508,29.785,22.461,13.184,-185.547
1637884652.232,13.672,27.832,20.996,1.953,-416.016
1637884652.236,32.227,23.438,27.832,38.574,99.609
1637884652.239,47.363,23.438,22.949,50.781,502.930
1637884652.243,28.809,23.438,21.484,31.250,-18.066
1637884652.247,12.207,22.461,29.785,5.859,-345.215
1637884652.251,27.832,22.949,30.762,14.648,-48.340
1637884652.255,47.363,21.484,29.297,50.781,517.090
1637884652.268,29.785,27.344,29.785,29.785,126.465
1637884652.272,5.371,31.250,29.297,-3.906,-396.484
1637884652.276,14.648,24.414,30.762,8.301,-250.000
1637884652.280,43.457,20.508,31.250,47.363,411.133
1637884652.284,34.668,26.367,29.785,32.715,273.438
1637884652.288,11.230,29.297,29.297,0.977,-297.852
1637884652.292,15.137,27.344,22.461,7.324,-334.473
1637884652.295,38.574,24.414,22.461,40.527,238.281
1637884652.299,40.527,27.832,27.344,45.898,437.988
1637884652.303,17.090,28.320,24.902,8.301,-146.484
1637884652.307,9.766,23.926,24.414,-8.789,-397.949
1637884652.311,34.180,25.391,29.785,32.715,47.363
1637884652.306,49.316,32.227,30.273,58.105,508.301
1637884652.310,27.344,30.762,26.367,29.785,-18.066
1637884652.314,10.742,27.344,29.785,2.930,-432.129
1637884652.318,28.320,29.785,27.832,17.578,-114.258
1637884652.322,55.176,36.621,22.461,54.688,523.926
1637884652.326,41.016,38.574,22.949,34.180,171.387
1637884652.330,19.531,34.180,21.484,-2.441,-317.871
1637884652.333,24.414,31.250,20.020,9.277,-226.074
1637884652.337,44.922,23.926,21.973,51.758,398.438
1637884652.341,41.504,27.832,24.414,40.527,360.840
1637884652.345,16.113,32.715,24.902,-2.441,-246.582
1637884652.349,9.766,30.273,26.367,-4.883,-379.395
1637884652.362,35.156,31.738,27.344,43.945,204.590
1637884652.366,40.527,31.250,28.809,63.477,486.816
1637884652.370,12.207,29.297,25.391,4.883,-96.191
1637884652.374,2.441,29.297,21.973,-22.949,-364.746
1637884652.378,24.414,24.414,27.832,17.578,38.574
1637884652.382,41.504,24.414,29.297,43.457,533.203
1637884652.386,21.484,27.832,21.484,10.742,55.664
1637884652.389,0.977,25.879,21.973,-18.555,-325.684
1637884652.393,11.230,21.484,31.738,9.766,-118.164
1637884652.397,37.109,24.414,35.156,46.387,448.242
1637884652.401,30.762,27.832,34.180,32.227,216.797
1637884652.405,7.324,21.973,29.785,0.000,-335.938
1637884652.400,12.695,22.461,26.367,5.859,-339.844
1637884652.404,38.574,23.926,28.320,52.734,306.152
1637884652.408,37.109,23.438,24.902,56.152,394.043
1637884652.412,10.742,21.484,19.531,12.207,-189.941
1637884652.416,4.395,20.020,21.484,3.418,-353.516
1637884652.420,28.320,19.531,29.297,42.480,178.223
1637884652.424,38.086,23.438,33.691,59.082,484.375
1637884652.427,20.020,31.738,30.273,20.996,-103.027
1637884652.431,10.254,33.203,29.785,-4.395,-374.023
1637884652.435,30.273,32.227,37.598,31.738,7.812
1637884652.439,47.363,32.227,35.645,61.035,486.816
1637884652.443,27.344,30.762,28.320,30.762,73.730
1637884652.456,7.812,31.250,29.785,-4.395,-310.547
1637884652.460,19.043,25.879,25.391,11.719,-160.156
1637884652.464,39.551,23.926,23.438,54.199,454.590
1637884652.468,30.273,29.297,27.344,42.480,296.387
1637884652.472,13.672,32.227,25.391,7.324,-340.332
1637884652.476,21.484,31.250,27.344,5.859,-369.629
1637884652.480,41.016,26.855,22.949,31.250,297.852
1637884652.483,34.668,27.832,21.973,28.320,452.637
1637884652.487,15.137,32.715,27.344,2.441,-147.461
1637884652.491,4.883,28.809,23.926,-11.230,-392.090
1637884652.495,25.391,24.414,26.855,22.461,145.508
1637884652.499,40.527,29.785,31.738,50.293,516.602
1637884652.493,18.066,28.809,25.391,17.578,-48.340
1637884652.497,3.418,26.367,20.996,-2.930,-370.117
1637884652.501,24.414,29.297,27.344,25.879,-59.570
1637884652.505,40.527,27.344,29.297,54.199,517.578
1637884652.509,21.484,23.926,23.926,27.344,140.625
1637884652.513,10.742,27.344,20.508,-5.371,-335.449
1637884652.517,22.461,30.762,22.949,7.324,-209.473
1637884652.520,45.410,29.785,29.785,51.270,416.504
1637884652.524,38.574,28.809,30.273,43.457,312.988
1637884652.528,13.184,31.250,24.414,0.977,-241.699
1637884652.532,16.602,33.203,26.855,3.906,-308.594
1637884652.536,41.016,31.250,28.320,46.387,264.160
1637884652.549,42.480,30.273,23.926,53.711,485.840
1637884652.553,20.508,29.297,17.578,13.672,-161.133
1637884652.557,10.742,30.762,17.578,-7.324,-437.012
1637884652.561,30.762,27.344,23.926,37.109,79.102
1637884652.565,43.457,24.414,25.391,61.035,533.203
1637884652.569,28.320,30.762,21.973,16.602,25.879
1637884652.573,19.043,36.621,21.484,-12.207,-377.441
1637884652.576,28.809,29.785,23.926,11.719,-102.539
1637884652.580,45.410,28.809,27.832,47.852,498.535
1637884652.584,37.109,33.203,20.996,26.855,142.090
1637884652.588,19.531,30.762,18.066,-0.488,-364.258
1637884652.592,23.438,28.320,20.996,12.695,-302.734
1637884652.587,46.387,30.762,23.438,49.805,349.609
1637884652.591,47.363,36.621,25.391,45.898,357.910
1637884652.595,22.461,36.621,23.926,12.207,-242.188
1637884652.599,13.672,32.715,24.414,4.883,-410.645
1637884652.603,45.898,32.227,27.832,37.109,169.434
1637884652.607,48.828,36.621,31.250,50.781,532.715
1637884652.611,16.113,31.738,26.855,14.160,-61.035
1637884652.614,5.371,24.902,20.996,-6.348,-410.645
1637884652.618,24.414,21.973,21.973,23.926,-20.020
1637884652.622,37.598,24.414,26.367,47.852,485.352
1637884652.626,19.043,26.855,25.391,18.555,27.832
1637884652.630,3.906,22.949,22.949,-11.719,-349.121
1637884652.643,18.066,23.438,26.367,12.695,-100.586
1637884652.647,36.621,26.367,27.344,46.875,488.770
1637884652.651,17.578,22.461,25.879,25.879,223.633
1637884652.655,1.465,22.949,24.414,-4.395,-312.988
1637884652.659,9.277,25.879,29.297,5.371,-332.520
1637884652.663,35.156,25.391,35.156,52.734,297.852
1637884652.667,34.668,28.320,29.785,38.086,406.250
1637884652.670,5.859,27.344,20.996,-17.578,-248.535
1637884652.674,3.418,26.855,16.602,-15.625,-445.312
1637884652.678,32.227,25.879,24.414,37.598,158.691
1637884652.682,41.016,21.973,26.855,47.852,501.465
1637884652.686,21.973,25.391,24.902,13.672,-63.965
1637884652.681,12.695,27.344,26.367,1.953,-360.840
1637884652.685,28.320,24.414,28.320,18.066,-12.695
1637884652.689,44.434,26.367,30.762,40.527,547.852
1637884652.693,22.461,30.762,27.832,13.184,109.863
1637884652.697,2.441,24.902,28.320,-17.578,-319.824
1637884652.701,17.090,23.926,35.645,10.254,-178.223
1637884652.705,41.504,29.297,37.109,54.688,392.090
1637884652.708,26.855,27.344,30.273,34.180,266.602
1637884652.712,2.930,23.438,25.391,-8.301,-242.676
1637884652.716,6.348,19.531,26.367,-8.789,-272.461
1637884652.720,36.621,18.555,31.738,41.992,286.621
1637884652.724,39.551,26.855,36.133,55.664,400.879
1637884652.737,14.648,32.715,27.832,6.348,-249.023
1637884652.741,6.348,29.785,25.391,-10.254,-428.711
1637884652.745,29.297,23.926,30.273,28.809,127.441
1637884652.749,44.434,29.297,30.273,58.105,535.156
1637884652.753,21.484,30.273,32.227,20.996,0.000
1637884652.757,7.324,26.367,30.762,-11.719,-391.113
1637884652.761,24.414,23.926,28.320,16.113,-116.211
1637884652.764,42.480,22.461,31.738,47.852,506.836
1637884652.768,27.832,28.320,26.855,31.250,130.371
1637884652.772,9.766,30.273,24.414,0.977,-365.234
1637884652.776,21.973,27.344,28.320,13.672,-198.730
1637884652.780,49.316,29.297,26.367,50.781,399.414
1637884652.774,40.039,34.668,25.879,33.203,334.961
1637884652.778,15.625,36.133,26.367,0.977,-250.488
1637884652.782,19.531,35.645,25.879,11.719,-381.836
1637884652.786,47.852,32.227,28.320,54.199,210.449
1637884652.790,51.758,29.297,27.832,52.246,453.613
1637884652.794,24.414,30.762,28.320,11.230,-114.746
1637884652.798,11.230,35.156,24.414,0.000,-402.344
1637884652.801,30.273,28.809,27.344,34.180,31.250
1637884652.805,41.016,27.344,29.785,59.082,552.246
1637884652.809,21.484,33.203,25.879,26.367,-4.883
1637884652.813,8.301,33.691,25.879,-7.812,-440.918
1637884652.817,23.438,31.250,31.250,21.484,-137.695
1637884652.831,48.340,29.785,32.227,59.082,486.816
1637884652.835,32.227,25.391,31.250,31.738,212.891
1637884652.839,8.789,24.902,29.785,-2.441,-323.242
1637884652.843,18.066,26.367,32.227,10.254,-273.926
1637884652.847,44.434,28.809,35.156,46.875,375.488
1637884652.851,39.062,30.762,26.855,27.344,392.578
1637884652.855,14.160,30.762,21.973,-12.695,-179.688
1637884652.858,17.090,33.691,27.832,-13.184,-331.055
1637884652.862,44.922,29.297,32.715,31.738,221.680
1637884652.866,47.852,27.344,31.738,45.410,492.188
1637884652.870,25.879,29.297,33.203,18.555,-102.051
1637884652.874,10.742,26.855,31.738,-0.488,-389.160
1637884652.869,23.926,25.391,28.320,18.555,-0.977
1637884652.873,42.969,27.832,30.762,53.223,508.301
1637884652.877,22.461,29.785,28.809,28.320,47.363
1637884652.881,-0.977,29.785,26.855,-0.488,-395.996
1637884652.885,16.602,28.809,30.762,18.066,-131.348
1637884652.889,43.945,28.320,33.203,54.199,493.652
1637884652.893,28.320,29.785,32.715,39.062,202.637
1637884652.896,7.324,32.715,30.762,1.465,-347.656
1637884652.900,16.602,27.344,31.250,9.277,-308.105
1637884652.904,38.574,22.461,29.785,45.410,310.547
1637884652.908,35.645,28.320,25.879,43.457,397.949
1637884652.912,15.625,28.320,23.438,15.137,-229.004
1637884652.924,14.160,25.391,26.855,7.812,-415.039
1637884652.928,36.621,27.344,33.203,39.062,134.766
1637884652.932,40.527,31.250,29.297,50.293,517.090
1637884652.936,19.043,29.785,29.785,11.230,-46.387
1637884652.940,7.812,25.879,30.762,-10.742,-347.656
1637884652.944,28.809,26.855,32.715,30.273,-21.973
1637884652.948,48.340,31.250,37.598,56.641,522.949
1637884652.951,25.879,31.250,31.738,20.996,135.254
1637884652.955,3.906,26.367,30.762,-0.977,-368.164
1637884652.959,14.648,23.926,33.691,13.184,-247.559
1637884652.963,39.062,24.902,36.133,42.969,415.039
1637884652.967,27.832,26.367,30.762,23.438,319.336
1637884652.962,7.812,25.879,31.738,-12.207,-304.688
1637884652.966,16.113,23.438,32.715,-7.812,-386.719
1637884652.970,38.574,25.391,28.809,38.574,274.902
1637884652.974,36.133,28.320,31.250,42.969,447.266
1637884652.978,11.719,28.809,36.133,1.953,-153.320
1637884652.982,9.766,33.203,35.156,-2.441,-390.137
1637884652.986,32.715,24.414,32.227,35.156,93.262
1637884652.989,42.969,17.578,30.273,48.828,499.023
1637884652.993,22.949,24.414,29.297,19.043,-39.062
1637884652.997,7.812,28.320,31.738,-3.418,-355.957
1637884653.001,26.367,27.344,31.250,15.625,-54.688
1637884653.005,46.875,25.879,30.762,41.504,481.445
1637884653.018,28.809,29.297,30.762,19.043,160.645
1637884653.022,4.883,34.668,25.391,-10.742,-320.801
1637884653.026,16.113,35.645,27.832,4.883,-237.305
1637884653.030,44.434,34.668,30.762,46.875,391.113
1637884653.034,34.668,29.785,20.996,34.668,312.012
1637884653.038,11.230,30.762,21.973,-1.953,-275.879
1637884653.042,13.184,32.227,27.344,-5.859,-403.320
1637884653.045,38.574,28.809,28.809,31.738,182.617
1637884653.049,45.410,31.250,27.344,42.969,489.746
1637884653.053,21.484,28.809,22.949,10.742,-110.352
1637884653.057,14.648,27.344,20.996,-4.883,-375.977
1637884653.061,40.527,30.762,24.902,19.531,66.895
1637884653.055,53.711,24.414,24.414,42.480,542.480
1637884653.059,38.574,23.438,22.949,17.090,48.828
1637884653.063,25.391,33.691,21.973,-11.230,-344.238
1637884653.067,34.668,34.180,25.879,21.973,-111.816
1637884653.071,51.758,30.273,23.438,59.570,486.816
1637884653.075,40.039,31.250,16.602,23.438,235.840
1637884653.079,18.066,32.715,19.043,-11.719,-328.613
1637884653.082,23.438,30.762,25.391,4.883,-310.547
1637884653.086,48.340,25.879,27.832,53.223,333.984
1637884653.090,40.039,25.879,24.414,47.363,337.402
1637884653.094,16.602,30.762,23.926,8.789,-306.641
1637884653.098,16.113,33.691,27.832,10.254,-416.504
1637884653.112,34.668,29.297,27.832,43.945,213.867
1637884653.116,38.086,26.855,24.902,52.734,504.883
1637884653.120,15.625,27.832,23.438,20.996,-132.324
1637884653.124,5.859,30.273,21.484,0.977,-396.484
1637884653.128,29.785,30.762,22.949,33.691,23.926
1637884653.132,48.340,25.879,27.832,56.641,501.465
1637884653.136,28.809,26.855,25.879,20.996,73.242
1637884653.139,16.113,31.738,27.344,-4.395,-385.742
1637884653.143,27.344,31.738,31.250,18.066,-213.867
1637884653.147,43.457,26.855,28.320,52.734,443.359
1637884653.151,39.062,31.738,32.715,40.527,221.191
1637884653.155,19.043,32.715,32.227,12.695,-339.844
1637884653.149,16.602,24.902,32.227,13.184,-323.242
1637884653.153,39.062,23.926,32.227,48.340,323.242
1637884653.157,35.645,26.367,22.949,43.457,402.344
1637884653.161,10.742,28.320,21.973,-1.953,-198.730
1637884653.165,-0.488,22.949,24.414,-11.719,-371.094
1637884653.169,23.926,22.461,26.855,30.273,130.859
1637884653.173,37.598,23.438,24.414,47.363,521.484
1637884653.176,17.090,24.414,26.855,9.766,-73.242
1637884653.180,0.977,31.250,32.227,-8.789,-410.645
1637884653.184,17.090,31.250,26.367,19.043,-17.090
1637884653.188,41.504,25.391,22.949,45.410,523.926
1637884653.192,27.832,25.391,22.949,21.973,111.816
1637884653.206,12.207,34.668,17.090,-6.348,-354.980
1637884653.210,23.926,36.133,19.531,5.371,-219.727
1637884653.214,47.363,31.250,25.879,45.898,381.836
1637884653.218,38.086,30.273,30.273,43.945,301.758
1637884653.222,16.113,33.203,31.250,4.395,-246.582
1637884653.226,18.555,33.203,28.320,-0.488,-363.770
1637884653.230,46.875,32.227,31.250,43.945,242.676
1637884653.233,49.316,31.250,29.297,58.105,423.828
1637884653.237,18.066,30.273,26.367,17.578,-203.613
1637884653.241,9.766,27.344,25.879,-1.465,-382.324
1637884653.245,38.086,23.438,31.738,37.109,119.141
1637884653.249,48.828,25.879,30.273,49.805,522.461
1637884653.243,28.809,28.320,24.902,13.672,9.277
1637884653.247,20.020,29.297,27.832,-4.395,-370.605
1637884653.251,31.250,29.297,30.762,20.996,-67.383
1637884653.255,50.293,31.738,29.297,53.711,515.137
1637884653.259,39.062,30.762,29.785,34.180,120.117
1637884653.263,20.996,30.273,34.180,6.836,-311.523
1637884653.267,31.250,31.250,28.809,15.625,-163.086
1637884653.270,56.152,28.320,27.344,55.176,406.738
1637884653.274,48.828,27.344,23.926,48.828,343.750
1637884653.278,27.832,30.273,24.414,7.324,-195.801
1637884653.282,30.273,31.738,29.297,9.766,-332.520
1637884653.286,55.176,30.273,33.203,49.805,210.938
1637884653.299,58.594,28.809,33.203,57.617,498.535
1637884653.303,35.156,31.250,28.809,23.926,-95.703
1637884653.307,25.391,31.250,24.414,3.906,-421.875
1637884653.311,47.852,30.762,29.297,43.945,14.648
1637884653.315,62.988,33.203,32.227,68.359,526.855
1637884653.319,38.086,33.203,24.414,27.344,30.273
1637884653.323,20.020,30.762,25.879,-2.930,-437.012
1637884653.326,31.250,25.391,26.855,20.020,-191.895
1637884653.330,49.805,20.996,26.855,55.664,492.188
1637884653.334,40.039,22.949,26.855,38.574,221.680
1637884653.338,24.414,31.250,27.344,8.301,-315.918
1637884653.342,31.738,33.203,30.762,10.742,-321.289
1637884653.338,52.246,27.832,35.645,58.594,335.449
1637884653.342,45.898,29.297,30.273,62.500,426.270
1637884653.346,20.508,32.227,30.762,20.996,-240.234
1637884653.350,18.066,30.273,38.086,13.184,-431.641
1637884653.354,41.504,27.832,34.668,49.316,127.930
1637884653.358,42.969,30.273,31.738,56.641,479.004
1637884653.362,20.020,29.297,28.320,22.461,-113.770
1637884653.365,10.254,27.344,27.832,2.930,-393.555
1637884653.369,28.809,24.414,30.762,33.691,31.250
1637884653.373,50.293,24.414,31.738,62.988,507.324
1637884653.377,31.250,31.250,28.320,26.367,84.961
1637884653.381,12.695,34.180,30.273,2.441,-350.586
1637884653.394,24.414,26.855,34.180,28.320,-198.242
1637884653.398,44.434,28.320,33.691,52.734,470.215
1637884653.402,30.273,30.273,34.180,30.273,287.598
1637884653.406,0.977,25.879,31.738,-1.953,-291.992
1637884653.410,6.348,28.320,31.250,3.418,-315.430
1637884653.414,36.621,30.273,27.344,42.480,323.730
1637884653.418,35.156,30.273,28.809,42.969,446.289
1637884653.421,15.137,29.785,33.203,4.883,-175.781
1637884653.425,8.789,27.344,33.691,-10.254,-421.387
1637884653.429,26.367,24.414,35.156,28.809,87.891
1637884653.433,38.574,29.297,33.203,56.152,539.551
1637884653.437,19.043,32.227,30.762,18.066,-8.789
1637884653.431,7.324,31.738,31.250,-12.207,-424.316
1637884653.435,27.832,27.344,30.762,22.949,-107.422
1637884653.439,43.945,24.902,27.344,52.246,508.789
1637884653.443,24.414,28.809,23.438,20.508,172.852
1637884653.447,6.348,29.785,23.926,-8.301,-334.961
1637884653.451,13.672,28.809,24.414,11.230,-238.770
1637884653.455,38.086,26.855,24.414,49.805,438.965
1637884653.458,35.156,20.508,25.391,41.016,298.340
1637884653.462,10.254,24.414,26.367,2.930,-286.621
1637884653.466,5.859,28.809,32.227,-6.836,-327.148
1637884653.470,28.809,24.902,29.297,32.715,253.906
1637884653.474,38.574,30.273,24.414,41.992,467.285
1637884653.487,16.113,34.668,24.902,5.859,-135.742
1637884653.491,3.418,29.297,24.414,-13.672,-374.512
1637884653.495,27.832,25.391,27.832,21.484,85.938
1637884653.499,45.410,24.902,28.320,55.664,493.652
1637884653.503,22.949,28.809,26.855,20.996,-15.137
1637884653.507,3.418,30.762,27.832,-12.207,-399.414
1637884653.511,19.531,23.926,31.738,14.160,-158.203
1637884653.514,43.457,21.484,32.227,47.852,449.219
1637884653.518,25.879,25.391,31.250,27.832,174.316
1637884653.522,8.301,30.273,27.832,0.977,-351.074
1637884653.526,17.090,23.438,31.250,9.766,-281.250
1637884653.530,41.504,21.973,37.598,51.270,361.816
1637884653.525,38.574,32.715,30.762,46.875,354.980
1637884653.529,11.719,27.832,22.461,1.953,-210.938
1637884653.533,6.348,22.949,27.344,-2.441,-331.055
1637884653.537,29.297,25.391,29.785,38.574,225.586
1637884653.541,35.645,24.414,29.297,49.805,482.910
1637884653.545,15.137,25.391,26.855,19.531,-121.094
1637884653.549,6.836,27.344,24.414,-1.465,-451.660
1637884653.552,22.461,26.367,27.344,22.461,9.766
1637884653.556,32.227,26.855,21.484,46.875,519.531
1637884653.560,17.578,29.785,17.578,10.742,18.555
1637884653.564,3.418,25.879,21.484,-17.578,-378.418
1637884653.568,12.695,21.973,20.508,5.859,-171.875
1637884653.581,35.156,25.879,26.367,41.992,428.711
1637884653.585,20.996,24.902,25.879,20.996,246.094
1637884653.589,0.977,25.391,21.973,-15.137,-280.273
1637884653.593,10.742,28.809,23.438,-0.488,-313.477
1637884653.597,36.621,32.715,27.832,50.293,351.562
1637884653.601,37.109,34.180,27.344,45.410,404.785
1637884653.605,15.625,35.156,14.648,-2.930,-223.633
1637884653.608,13.184,30.762,17.578,-16.602,-395.508
1637884653.612,32.715,26.367,30.273,19.531,142.090
1637884653.616,40.527,33.203,27.832,37.109,536.621
1637884653.620,19.043,33.691,19.531,7.812,-5.859
1637884653.624,3.906,30.273,17.578,-22.461,-395.996
1637884653.619,24.414,24.902,20.508,7.812,-25.391
1637884653.623,41.992,23.438,20.996,45.410,526.367
1637884653.627,28.320,26.855,25.391,20.508,79.590
1637884653.631,16.602,27.832,24.414,-6.836,-364.746
1637884653.635,28.320,23.926,20.996,0.488,-213.867
1637884653.639,54.688,25.391,26.367,44.922,425.293
1637884653.643,42.969,31.738,29.785,47.852,286.133
1637884653.646,9.766,24.902,24.414,-0.488,-268.555
1637884653.650,15.137,24.414,26.367,-0.977,-315.430
1637884653.654,38.086,29.785,33.203,40.039,245.605
1637884653.658,29.785,25.879,27.832,40.039,436.523
1637884653.662,5.859,20.996,23.438,6.348,-152.344
1637884653.674,1.953,24.414,22.949,-1.953,-415.527
1637884653.678,30.762,25.391,24.902,37.598,113.281
1637884653.682,41.016,24.414,29.297,59.570,515.625
1637884653.686,17.578,27.832,26.855,19.531,-40.527
1637884653.690,6.348,27.832,27.832,-11.719,-391.113
1637884653.694,26.855,25.879,29.785,15.137,-81.543
1637884653.698,44.434,27.344,29.297,50.293,472.656
1637884653.701,27.344,27.344,28.320,21.484,85.938
1637884653.705,16.113,29.297,25.879,-15.137,-352.539
1637884653.709,20.996,26.367,24.902,4.883,-179.688
1637884653.713,41.504,24.902,27.344,41.504,431.152
1637884653.717,38.574,31.738,25.879,20.020,337.891
1637884653.712,16.602,34.668,21.484,-11.719,-260.254
1637884653.716,17.090,33.203,26.855,8.789,-397.949
1637884653.720,43.945,32.227,31.250,43.945,233.887
1637884653.724,50.293,29.297,28.809,40.527,468.750
1637884653.728,24.902,22.949,25.879,5.859,-152.344
1637884653.732,17.578,27.344,29.785,-8.789,-414.551
1637884653.736,37.109,31.250,35.156,31.250,62.012
1637884653.739,41.992,27.832,30.273,50.781,547.363
1637884653.743,20.508,30.762,25.391,10.254,-9.766
1637884653.747,2.441,27.832,31.250,-20.508,-385.254
1637884653.751,16.602,20.508,28.320,4.883,-78.613
1637884653.755,37.109,21.484,25.391,46.875,491.211
1637884653.768,17.090,25.391,29.297,30.273,170.410
1637884653.772,0.488,23.438,27.344,-9.277,-344.238
1637884653.776,14.160,22.949,33.203,-2.441,-268.066
1637884653.780,36.621,22.461,34.668,43.945,409.180
1637884653.784,39.062,29.785,31.250,49.316,409.668
1637884653.788,23.926,38.574,31.738,12.207,-248.535
1637884653.792,12.695,27.832,29.297,-6.836,-363.281
1637884653.795,32.715,21.484,25.879,32.715,202.148
1637884653.799,39.062,28.320,22.949,49.805,457.520
1637884653.803,16.113,26.855,21.973,9.766,-152.832
1637884653.807,2.441,21.484,21.484,-3.418,-451.660
1637884653.811,21.484,21.973,25.391,29.297,-13.184
1637884653.806,41.016,29.297,28.320,47.363,528.809
1637884653.810,21.484,28.320,26.367,19.043,87.891
1637884653.814,2.930,24.902,31.250,-5.859,-373.535
1637884653.818,20.996,26.855,31.738,19.531,-174.316
1637884653.822,42.480,21.973,30.273,50.781,469.238
1637884653.826,25.391,24.414,23.926,33.203,249.023
1637884653.830,6.348,23.926,16.602,-2.441,-335.449
1637884653.833,14.648,18.066,24.902,3.906,-365.723
1637884653.837,35.645,22.461,29.297,48.828,328.613
1637884653.841,28.809,26.855,31.250,40.527,405.762
1637884653.845,8.301,27.832,31.738,11.719,-180.176
1637884653.849,10.254,25.391,31.250,14.648,-336.914
1637884653.881,39.062,23.438,28.809,48.340,149.414
1637884653.885,52.734,32.715,31.250,60.547,515.625
1637884653.889,27.832,32.715,26.367,20.508,-76.660
1637884653.893,13.184,23.926,20.020,-5.859,-431.641
1637884653.897,29.297,20.508,23.926,21.484,-27.344
1637884653.901,49.805,21.484,26.855,56.641,514.648
1637884653.905,32.715,25.391,30.762,26.367,71.289
1637884653.908,14.160,29.297,28.320,-12.207,-365.723
1637884653.912,26.855,29.785,24.902,11.230,-143.066
1637884653.916,44.922,27.832,27.344,49.805,423.340
1637884653.920,35.645,27.832,29.297,36.133,280.762
1637884653.924,16.602,28.809,25.879,2.441,-211.426
1637884653.900,21.973,29.785,25.391,5.859,-333.984
1637884653.904,44.434,25.391,22.949,44.434,267.578
1637884653.908,46.875,25.879,21.973,47.852,469.727
1637884653.912,24.414,28.809,20.020,10.254,-122.070
1637884653.916,14.648,31.738,19.531,-7.812,-356.934
1637884653.920,40.039,34.180,29.785,31.738,125.977
1637884653.924,51.758,33.203,30.273,56.641,548.828
1637884653.927,23.438,31.738,21.484,23.926,-7.324
1637884653.931,6.348,31.250,24.902,-2.930,-363.281
1637884653.935,23.926,26.855,27.832,16.602,-59.570
1637884653.939,45.410,25.879,24.902,47.363,482.910
1637884653.943,35.156,34.180,23.926,27.344,97.168
1637884653.956,20.508,36.133,27.344,4.883,-402.832
