timestamps,TP9,AF7,AF8,TP10,Right AUX
1637884410.223,28.320,24.902,36.621,23.926,5.371
1637884410.227,29.297,26.367,39.062,27.832,2.930
1637884410.231,30.273,28.809,34.668,39.062,55.664
1637884410.235,26.367,26.367,31.250,33.691,62.988
1637884410.239,25.391,26.367,35.645,22.949,18.555
1637884410.243,37.598,35.645,42.969,27.344,-3.418
1637884410.247,37.109,32.715,38.574,32.227,79.102
1637884410.250,30.273,23.926,34.668,30.273,32.715
1637884410.254,30.273,27.344,33.691,19.531,-25.879
1637884410.258,25.879,29.297,33.691,14.160,-19.531
1637884410.262,27.832,26.855,33.691,22.949,22.461
1637884410.266,28.809,27.832,31.738,20.020,67.871
1637884410.278,22.949,30.273,34.668,14.648,48.340
1637884410.282,20.020,31.250,32.715,22.949,48.828
1637884410.286,22.949,32.227,33.203,29.785,34.180
1637884410.290,27.832,30.762,30.762,29.785,75.195
1637884410.294,23.438,28.809,25.391,19.043,29.785
1637884410.298,13.184,25.879,28.809,11.719,-38.574
1637884410.302,15.625,27.344,29.297,16.113,11.230
1637884410.305,25.879,27.344,30.273,23.926,81.543
1637884410.309,20.996,22.461,32.227,22.461,2.930
1637884410.313,14.648,23.926,27.344,17.578,-1.953
1637884410.317,20.508,25.879,24.902,24.414,89.355
1637884410.321,23.438,27.344,28.320,29.297,107.422
1637884410.316,27.344,29.297,25.391,27.832,83.984
1637884410.320,37.109,31.738,24.902,28.320,12.207
1637884410.324,33.203,33.691,28.809,29.297,-21.484
1637884410.328,29.785,34.180,25.879,34.668,31.250
1637884410.332,33.691,34.668,24.414,38.574,38.574
1637884410.336,32.715,34.180,26.367,33.691,-0.488
1637884410.340,25.879,33.203,25.879,29.297,-6.836
1637884410.343,25.391,33.203,24.902,26.367,26.855
1637884410.347,28.320,30.762,27.832,22.949,76.172
1637884410.351,25.879,28.809,30.273,25.879,42.969
1637884410.355,24.414,31.250,27.832,23.926,-22.461
1637884410.359,26.367,29.297,26.367,25.879,-25.879
1637884410.372,32.715,27.344,27.344,32.227,34.180
1637884410.376,29.297,26.367,27.344,22.949,18.066
1637884410.380,24.902,22.461,28.320,17.090,0.000
1637884410.384,30.273,27.832,27.344,23.438,11.230
1637884410.388,29.785,26.855,25.391,26.367,47.852
1637884410.392,23.438,20.996,28.320,24.902,49.316
1637884410.396,21.484,22.949,28.809,16.113,13.184
1637884410.399,23.438,21.973,26.855,12.695,10.254
1637884410.403,25.391,24.902,25.879,20.020,16.602
1637884410.407,28.320,26.367,29.297,23.926,51.758
1637884410.411,28.320,23.438,28.320,21.484,20.020
1637884410.415,27.344,26.367,26.367,12.695,-6.348
1637884410.410,34.180,30.273,26.367,20.508,46.387
1637884410.414,37.598,29.785,26.855,32.227,93.262
1637884410.418,31.250,27.832,32.715,17.578,40.039
1637884410.422,28.809,28.809,31.738,14.648,-11.719
1637884410.426,34.180,31.738,33.203,25.879,-40.527
1637884410.430,38.086,32.715,33.203,25.391,38.574
1637884410.434,36.133,32.227,29.785,15.625,64.453
1637884410.437,30.273,34.180,31.738,18.066,13.184
1637884410.441,28.320,35.156,32.227,16.602,-27.832
1637884410.445,28.809,35.645,28.320,19.043,34.668
1637884410.449,25.879,35.645,27.344,25.391,103.516
1637884410.453,23.438,31.250,26.367,15.137,12.207
1637884410.466,23.926,30.273,24.902,15.137,-20.508
1637884410.470,28.320,30.762,23.926,24.902,23.926
1637884410.474,28.320,30.273,24.902,23.438,90.820
1637884410.478,24.902,31.738,25.391,15.625,14.160
1637884410.482,22.949,28.320,26.367,14.160,-9.766
1637884410.486,21.484,27.832,29.785,13.184,36.133
1637884410.490,25.391,30.762,30.762,12.695,64.941
1637884410.493,25.879,29.785,30.273,15.625,80.078
1637884410.497,21.973,28.320,29.297,16.113,14.648
1637884410.501,23.926,27.344,27.832,15.137,30.762
1637884410.505,31.250,30.273,32.227,27.832,86.914
1637884410.509,29.297,29.785,36.133,26.855,51.758
1637884410.505,22.949,25.879,32.227,21.973,-2.930
1637884410.509,24.902,28.320,25.879,25.391,3.418
1637884410.513,31.738,31.738,23.926,28.320,23.926
1637884410.517,31.250,29.297,29.297,31.250,67.383
1637884410.521,24.902,27.832,34.668,28.320,-19.043
1637884410.525,26.367,28.320,35.156,24.902,-38.574
1637884410.529,28.809,31.738,31.738,27.344,37.109
1637884410.532,27.344,34.668,32.227,31.738,87.402
1637884410.536,27.344,32.227,31.738,24.902,3.418
1637884410.540,27.344,29.297,35.645,19.043,-89.844
1637884410.544,25.391,31.250,33.691,19.531,11.719
1637884410.548,29.785,32.715,29.785,24.902,93.262
1637884410.560,27.344,28.809,30.762,22.949,38.574
1637884410.564,22.461,32.715,29.297,12.695,-7.324
1637884410.568,26.367,30.762,31.250,12.695,-17.578
1637884410.572,32.227,29.785,29.297,19.531,46.875
1637884410.576,34.668,35.645,27.832,23.926,96.191
1637884410.580,32.227,31.738,32.227,19.531,1.953
1637884410.584,29.785,29.785,32.715,18.066,-60.547
1637884410.587,31.250,31.738,30.762,32.227,2.441
1637884410.591,31.738,31.738,33.203,27.832,97.168
1637884410.595,30.762,34.180,32.715,11.719,64.941
1637884410.599,29.297,36.621,33.691,15.625,-20.020
1637884410.603,28.320,35.645,33.691,20.508,-16.113
1637884410.597,29.297,29.785,29.785,20.020,90.332
1637884410.601,25.879,28.320,30.273,19.531,72.754
1637884410.605,22.949,27.832,34.180,18.555,-7.324
1637884410.609,24.902,27.344,33.691,24.414,-3.418
1637884410.613,29.785,29.785,33.203,35.156,68.359
1637884410.617,28.809,30.762,34.180,33.691,44.922
1637884410.621,24.902,33.691,28.809,26.367,-6.348
1637884410.624,25.879,34.668,27.344,22.461,-15.137
1637884410.628,31.250,32.227,31.250,25.391,60.547
1637884410.632,28.809,34.180,32.227,22.461,89.355
1637884410.636,28.320,34.180,27.344,21.973,19.531
1637884410.640,29.297,31.738,26.367,26.855,1.465
1637884410.653,25.879,30.762,29.297,27.344,21.973
1637884410.657,28.809,30.762,32.227,24.414,50.781
1637884410.661,24.902,32.227,28.809,21.484,58.594
1637884410.665,25.391,33.203,24.902,20.508,29.785
1637884410.669,27.832,29.297,27.344,21.484,-5.371
1637884410.673,29.297,27.832,31.250,24.414,41.016
1637884410.677,26.855,28.809,30.762,17.090,23.438
1637884410.680,22.461,26.367,28.320,13.672,11.230
1637884410.684,30.273,25.391,31.250,21.973,-14.648
1637884410.688,33.203,26.855,28.809,21.484,24.902
1637884410.692,28.320,27.344,30.273,20.996,60.059
1637884410.696,26.367,28.320,28.320,19.043,59.082
1637884410.692,24.414,27.832,24.414,15.625,45.410
1637884410.696,28.809,24.902,28.809,20.996,32.227
1637884410.700,23.926,24.902,35.645,23.438,93.750
1637884410.704,18.555,25.879,34.180,16.113,50.781
1637884410.708,29.785,27.832,31.738,14.648,-8.789
1637884410.712,30.762,29.297,35.156,23.438,0.488
1637884410.716,26.367,28.320,37.598,25.391,83.984
1637884410.719,20.020,27.832,34.180,18.555,66.895
1637884410.723,11.230,24.414,31.738,7.812,-71.777
1637884410.727,14.648,24.902,35.156,18.066,-41.504
1637884410.731,21.484,28.320,33.203,30.762,89.355
1637884410.735,15.137,26.855,26.855,15.625,45.898
1637884410.747,10.742,24.902,25.879,6.348,-27.344
1637884410.751,18.555,28.320,28.320,10.742,-6.836
1637884410.755,27.344,35.156,32.227,20.996,68.359
1637884410.759,22.949,30.273,32.715,17.090,69.336
1637884410.763,17.578,26.855,31.250,12.695,9.277
1637884410.767,17.578,29.297,31.738,16.602,-36.621
1637884410.771,22.461,27.344,28.809,21.973,-4.395
1637884410.774,26.367,28.320,25.879,21.484,52.734
1637884410.778,22.461,29.785,29.297,15.625,7.324
1637884410.782,12.207,29.297,29.297,14.160,-44.434
1637884410.786,11.230,28.320,27.344,14.648,-34.180
1637884410.790,20.020,29.785,27.344,19.043,44.922
1637884410.785,24.902,30.762,27.344,17.090,6.836
1637884410.789,18.066,30.762,28.320,14.648,-44.434
1637884410.793,14.160,27.832,29.297,12.695,0.000
1637884410.797,18.066,28.809,25.391,13.184,85.449
1637884410.801,16.602,29.297,24.414,11.230,78.125
1637884410.805,13.672,29.297,25.391,9.766,-1.953
1637884410.809,17.090,32.715,25.879,14.648,-42.969
1637884410.812,24.414,29.297,30.273,20.508,54.199
1637884410.816,25.879,27.344,27.344,12.695,76.172
1637884410.820,28.809,31.250,28.320,12.207,-32.227
1637884410.824,30.762,33.203,27.344,19.043,-13.672
1637884410.828,28.809,31.738,23.438,17.090,41.016
1637884410.841,28.320,29.785,26.367,25.391,101.562
1637884410.845,21.973,25.391,29.297,22.949,41.504
1637884410.849,17.578,27.344,34.668,17.578,-84.961
1637884410.853,14.648,28.809,32.715,19.043,1.465
1637884410.857,15.625,27.344,30.273,22.949,101.562
1637884410.861,12.695,27.344,29.785,20.020,44.922
1637884410.865,13.672,26.367,31.250,15.137,-62.012
1637884410.868,18.066,27.832,32.227,20.508,-41.504
1637884410.872,23.438,29.297,27.344,31.250,40.527
1637884410.876,20.020,27.344,29.785,32.227,55.176
1637884410.880,20.020,27.832,32.227,20.020,59.082
1637884410.884,27.832,30.273,26.855,16.113,-1.465
1637884410.878,26.855,30.762,29.785,19.043,59.082
1637884410.882,22.461,28.320,33.691,19.043,130.371
1637884410.886,21.973,28.809,36.133,21.973,53.223
1637884410.890,22.461,26.855,38.086,23.438,37.109
1637884410.894,21.484,26.367,35.645,20.508,41.504
1637884410.898,22.949,26.855,31.250,22.461,59.082
1637884410.902,23.926,25.879,30.762,27.832,29.297
1637884410.905,25.879,25.391,32.715,25.391,-11.230
1637884410.909,34.180,28.809,32.715,20.508,-5.371
1637884410.913,38.086,32.227,33.691,30.273,57.129
1637884410.917,31.250,28.809,29.785,31.250,-4.395
1637884410.921,26.367,25.879,26.367,19.531,-67.383
1637884410.935,30.273,27.344,24.414,24.414,-43.457
1637884410.939,36.621,27.832,25.391,29.785,26.367
1637884410.943,33.691,26.367,27.344,26.367,90.332
1637884410.947,35.645,26.367,26.855,21.973,81.055
1637884410.951,41.016,32.227,29.785,24.902,7.812
1637884410.955,35.645,34.668,25.879,26.855,41.504
1637884410.959,31.738,30.273,22.949,26.855,50.781
1637884410.962,35.156,29.297,27.344,29.785,-15.625
1637884410.966,39.062,32.715,27.344,29.297,-38.574
1637884410.970,40.039,33.691,26.367,37.109,4.883
1637884410.974,41.992,31.738,31.738,40.039,71.289
1637884410.978,40.039,32.715,34.180,29.785,11.719
1637884410.972,36.621,32.227,30.762,20.020,-19.043
1637884410.976,36.133,33.203,28.320,24.414,-10.742
1637884410.980,36.621,35.645,30.762,31.738,78.613
1637884410.984,31.738,33.203,32.227,26.367,87.402
1637884410.988,30.273,32.715,27.344,20.020,35.645
1637884410.992,31.250,34.668,26.855,20.508,28.320
1637884410.996,36.621,37.598,32.715,26.855,80.078
1637884410.999,36.621,39.062,28.320,27.832,88.867
1637884411.003,25.879,30.273,25.879,14.648,-1.953
1637884411.007,20.996,25.391,29.297,7.812,-41.992
1637884411.011,22.461,29.297,23.926,11.719,31.738
1637884411.015,21.973,28.809,28.320,17.090,65.918
1637884411.028,21.484,27.832,31.738,19.043,-15.137
1637884411.032,20.996,29.297,29.297,13.672,-31.738
1637884411.036,24.414,28.809,36.621,20.508,23.926
1637884411.040,28.809,32.227,40.527,29.785,76.172
1637884411.044,21.484,30.762,39.062,25.391,49.316
1637884411.048,21.973,29.785,40.527,21.484,-14.648
1637884411.052,27.344,32.715,40.527,20.996,1.465
1637884411.055,27.344,36.133,37.109,21.484,55.664
1637884411.059,25.879,35.156,37.598,20.996,13.184
1637884411.063,27.344,32.715,39.062,26.367,11.230
1637884411.067,26.367,32.715,36.133,24.414,-0.977
1637884411.071,28.320,32.715,34.668,24.902,7.812
1637884411.066,29.297,31.738,35.156,32.715,63.477
1637884411.070,25.391,29.785,32.715,24.414,-12.207
1637884411.074,24.902,32.715,29.297,16.602,0.977
1637884411.078,29.297,34.668,29.785,16.602,82.520
1637884411.082,28.809,33.691,32.227,13.184,89.844
1637884411.086,19.531,33.203,30.273,7.812,-6.348
1637884411.090,17.090,33.203,25.391,5.371,-58.594
1637884411.093,20.508,30.762,23.438,6.348,9.766
1637884411.097,24.902,31.250,30.762,11.719,83.496
1637884411.101,24.414,32.227,32.715,14.648,-7.324
1637884411.105,25.879,30.762,26.367,14.648,-103.027
1637884411.109,28.809,30.762,23.438,16.602,-28.320
1637884411.122,34.668,30.762,23.926,22.461,74.219
1637884411.126,41.504,31.738,27.832,22.949,31.250
1637884411.130,41.016,33.203,28.809,23.438,-17.090
1637884411.134,41.016,34.180,29.785,30.273,6.348
1637884411.138,44.922,35.156,32.227,41.992,49.316
1637884411.142,42.480,35.156,28.320,37.598,94.238
1637884411.146,36.621,31.738,29.785,21.484,-11.719
1637884411.149,35.156,31.250,34.180,23.926,-59.082
1637884411.153,39.062,32.227,34.180,34.668,69.824
1637884411.157,39.062,32.715,32.715,37.598,122.559
1637884411.161,32.715,30.273,33.691,27.832,52.246
1637884411.165,30.273,31.738,29.297,29.785,-1.465
1637884411.161,33.203,34.668,26.855,35.645,12.207
1637884411.165,30.762,33.691,34.180,33.203,92.285
1637884411.169,24.414,35.645,33.203,25.879,57.617
1637884411.173,22.461,36.133,29.297,19.043,-38.574
1637884411.177,17.090,31.738,28.809,22.949,-26.367
1637884411.181,16.602,31.738,24.902,25.879,76.172
1637884411.185,21.484,32.715,25.391,24.902,89.355
1637884411.188,25.391,30.273,26.855,24.902,5.859
1637884411.192,29.785,31.250,25.391,23.438,-40.039
1637884411.196,35.156,34.668,30.762,26.367,8.789
1637884411.200,39.062,34.180,28.320,31.738,99.121
1637884411.204,31.738,33.691,24.902,25.879,50.293
1637884411.216,26.367,31.738,28.320,15.137,31.738
1637884411.220,29.785,31.250,27.344,20.996,73.730
1637884411.224,29.785,34.668,23.926,26.855,84.961
1637884411.228,32.227,35.645,24.902,24.414,25.879
1637884411.232,30.762,33.691,26.367,25.391,-32.715
1637884411.236,28.809,31.738,24.902,22.461,3.906
1637884411.240,36.133,32.227,24.414,26.367,72.754
1637884411.243,38.086,36.133,24.414,30.762,82.031
1637884411.247,36.621,33.691,23.438,27.832,53.711
1637884411.251,38.574,30.273,24.902,30.762,6.836
1637884411.255,40.527,32.715,23.438,35.156,37.598
1637884411.259,34.668,32.227,22.949,29.297,65.430
1637884411.253,28.809,28.809,26.855,22.461,35.645
1637884411.257,28.809,26.367,29.297,20.508,-1.953
1637884411.261,32.715,25.879,29.785,28.809,35.156
1637884411.265,31.250,27.832,31.738,34.180,64.941
1637884411.269,28.320,31.738,32.715,32.227,14.160
1637884411.273,30.273,31.250,31.738,32.715,1.465
1637884411.277,35.645,29.297,33.203,34.668,4.883
1637884411.280,34.668,28.809,31.250,32.715,70.312
1637884411.284,30.273,27.344,31.250,20.996,45.410
1637884411.288,30.762,28.320,30.273,14.160,-49.316
1637884411.292,30.762,29.297,26.855,16.113,-63.477
1637884411.296,26.855,26.855,31.250,18.066,42.969
1637884411.310,21.973,29.297,35.645,18.555,86.914
1637884411.314,20.020,31.250,37.109,16.602,11.719
1637884411.318,19.043,25.879,33.203,16.113,-22.461
1637884411.322,22.461,24.902,33.203,17.090,41.504
1637884411.326,21.484,26.367,32.227,16.602,101.562
1637884411.330,17.578,26.855,30.762,15.137,23.438
1637884411.334,18.066,27.344,29.297,10.742,-17.090
1637884411.337,20.020,32.227,26.855,16.602,88.867
1637884411.341,16.113,31.738,23.926,20.996,103.027
1637884411.345,10.742,29.297,21.973,11.719,5.371
1637884411.349,14.160,32.227,26.855,8.789,-19.531
1637884411.353,14.160,29.297,30.273,14.160,13.184
1637884411.347,16.602,27.832,30.762,19.531,69.824
1637884411.351,18.555,30.273,30.762,14.648,43.945
1637884411.355,18.066,33.203,31.250,15.137,-25.879
1637884411.359,20.996,35.645,30.273,19.043,-44.434
1637884411.363,26.367,31.738,27.832,19.531,40.527
1637884411.367,24.902,30.762,23.438,15.625,104.492
1637884411.371,24.902,31.738,26.367,11.230,53.223
1637884411.374,31.250,32.715,35.645,15.625,-21.484
1637884411.378,34.180,33.203,33.691,20.508,-6.348
1637884411.382,33.203,30.273,31.738,24.414,66.406
1637884411.386,32.715,31.738,34.180,23.926,82.031
1637884411.390,32.715,29.297,31.250,24.902,4.395
1637884411.403,38.574,29.297,31.738,35.645,-2.441
1637884411.407,35.645,31.738,32.227,32.715,67.383
1637884411.411,30.273,27.832,31.250,27.344,49.316
1637884411.415,28.809,30.762,34.668,27.832,20.508
1637884411.419,28.320,30.762,38.574,23.926,48.828
1637884411.423,29.785,27.344,35.645,25.391,96.191
1637884411.427,25.879,26.855,34.668,24.414,39.551
1637884411.430,27.344,26.855,33.203,23.438,-52.246
1637884411.434,30.273,29.785,28.320,24.902,-19.043
1637884411.438,29.297,29.785,31.738,29.297,83.008
1637884411.442,30.273,30.273,30.273,29.297,86.914
1637884411.446,25.879,27.832,25.391,17.578,-31.738
1637884411.442,23.926,26.855,26.855,12.207,-53.223
1637884411.446,24.902,30.762,31.250,18.066,24.414
1637884411.450,26.367,31.738,35.645,21.484,62.500
1637884411.454,26.367,31.738,30.273,15.137,9.766
1637884411.458,24.414,31.250,29.297,4.395,-24.414
1637884411.462,32.227,33.203,32.227,14.648,31.738
1637884411.466,34.180,33.691,29.785,25.391,123.047
1637884411.469,22.949,28.809,25.879,3.418,50.293
1637884411.473,20.996,27.344,25.879,-9.277,-63.477
1637884411.477,21.484,30.762,27.344,0.977,-25.879
1637884411.481,21.484,31.738,29.785,11.719,52.246
1637884411.485,23.438,34.180,27.344,14.160,19.043
1637884411.497,23.926,36.621,23.926,13.672,-12.207
1637884411.501,25.391,35.156,25.879,13.672,4.883
1637884411.505,26.855,32.715,27.344,14.648,61.523
1637884411.509,24.414,33.203,30.273,15.137,56.641
1637884411.513,21.973,34.180,30.762,14.648,24.414
1637884411.517,22.461,32.715,28.320,18.066,9.766
1637884411.521,29.785,34.180,26.855,15.137,25.879
1637884411.524,26.367,34.668,24.414,11.719,93.262
1637884411.528,18.066,33.691,23.438,17.090,45.898
1637884411.532,19.043,35.645,24.414,19.531,-53.711
1637884411.536,26.367,39.062,31.250,21.973,-14.648
1637884411.540,34.668,40.039,31.250,25.391,72.754
1637884411.535,32.227,38.574,24.902,21.973,40.039
1637884411.539,27.832,38.086,26.367,15.625,-35.645
1637884411.543,29.785,35.156,30.273,18.555,-1.953
1637884411.547,32.715,35.156,32.227,28.320,77.148
1637884411.551,25.391,34.668,27.832,20.508,71.289
1637884411.555,20.508,31.738,26.855,16.113,3.906
1637884411.559,20.508,29.785,30.762,19.043,-28.809
1637884411.562,26.855,32.227,32.227,23.438,38.574
1637884411.566,29.785,34.668,30.273,25.391,83.008
1637884411.570,22.461,32.715,30.273,22.949,66.406
1637884411.574,30.762,36.621,32.227,26.855,16.113
1637884411.578,44.434,38.574,32.227,31.738,46.387
1637884411.591,42.480,37.109,30.273,35.156,71.777
1637884411.595,33.691,36.133,29.297,30.273,1.953
1637884411.599,30.273,32.227,32.715,25.391,-52.246
1637884411.603,32.227,30.762,29.297,29.785,-18.066
1637884411.607,32.227,30.273,30.762,35.156,65.918
1637884411.611,30.762,27.832,34.180,26.855,39.062
1637884411.615,33.203,31.738,27.344,20.508,48.340
1637884411.618,35.156,35.156,28.320,29.297,58.105
1637884411.622,37.598,31.250,30.762,38.574,48.828
1637884411.626,36.621,30.762,30.273,35.156,69.824
1637884411.630,32.227,34.180,31.250,22.949,11.230
1637884411.634,30.762,35.156,30.273,23.926,-70.312
1637884411.630,36.133,34.180,30.273,28.320,1.953
1637884411.634,36.621,31.738,30.762,26.855,32.227
1637884411.638,32.227,30.762,28.320,25.391,-23.926
1637884411.642,30.762,31.250,31.250,20.996,-25.391
1637884411.646,29.785,30.273,32.227,21.973,21.973
1637884411.650,31.250,27.832,32.227,22.949,67.383
1637884411.654,35.645,27.344,31.738,18.555,34.668
1637884411.657,39.062,32.715,34.180,18.066,8.301
1637884411.661,36.621,34.180,35.156,24.414,6.836
1637884411.665,35.645,27.344,29.297,29.297,63.477
1637884411.669,35.156,25.391,29.785,24.902,61.523
1637884411.673,30.273,25.879,31.738,22.949,-10.254
1637884411.686,25.879,26.855,31.738,21.973,-25.391
1637884411.690,28.320,25.879,30.273,29.297,33.203
1637884411.694,28.809,28.320,31.250,31.738,30.273
1637884411.698,24.902,30.762,31.250,18.555,-12.207
1637884411.702,26.855,28.809,30.762,19.043,-13.672
1637884411.706,29.785,29.297,33.691,25.879,43.457
1637884411.710,27.344,31.250,31.250,29.297,77.148
1637884411.713,26.367,31.738,29.785,26.367,41.992
1637884411.717,28.320,29.785,33.203,18.066,-7.812
1637884411.721,30.273,27.344,29.785,18.066,-20.020
1637884411.725,32.715,28.320,30.762,22.461,40.527
1637884411.729,30.273,31.738,29.785,16.602,16.602
1637884411.722,26.855,29.785,25.391,11.719,-5.859
1637884411.726,29.297,29.785,24.902,18.066,12.207
1637884411.730,34.668,31.250,25.391,25.391,41.992
1637884411.734,35.156,29.785,23.926,22.461,83.496
1637884411.738,31.250,30.762,26.855,14.160,87.891
1637884411.742,29.297,34.668,34.180,15.625,0.000
1637884411.746,30.762,33.691,33.691,30.273,28.809
1637884411.749,23.438,29.785,25.391,28.809,72.754
1637884411.753,20.508,28.320,23.926,13.672,7.812
1637884411.757,23.926,28.809,26.367,8.301,-11.230
1637884411.761,22.461,32.227,25.879,9.766,29.785
1637884411.765,23.438,33.691,29.297,12.695,105.469
1637884411.778,22.949,35.156,32.227,11.719,55.176
1637884411.782,20.020,37.598,32.715,5.859,-43.457
1637884411.786,25.879,37.598,29.297,11.719,-22.949
1637884411.790,37.598,38.574,28.320,24.414,74.707
1637884411.794,36.621,39.551,30.273,25.879,54.688
1637884411.798,27.344,35.645,27.832,18.066,-11.230
1637884411.802,26.367,30.762,23.438,10.742,-34.668
1637884411.805,28.809,30.762,21.973,11.719,10.742
1637884411.809,25.391,32.715,25.391,11.230,55.176
1637884411.813,24.902,32.715,24.414,8.301,-17.090
1637884411.817,21.973,34.180,21.973,12.695,-23.438
1637884411.821,21.973,33.691,24.902,13.184,55.176
1637884411.816,19.531,30.273,26.367,12.695,78.613
1637884411.820,20.508,29.785,25.391,16.113,38.574
1637884411.824,29.785,30.273,25.391,20.996,-35.156
1637884411.828,32.715,31.250,24.902,27.344,-2.930
1637884411.832,34.180,31.738,26.855,27.832,93.262
1637884411.836,30.762,33.203,27.832,19.043,40.527
1637884411.840,25.391,32.715,26.855,13.184,-23.926
1637884411.843,26.367,32.715,27.344,19.531,41.992
1637884411.847,32.227,33.203,25.391,23.926,79.102
1637884411.851,32.227,29.785,27.832,18.066,2.930
1637884411.855,29.297,28.809,28.320,18.555,2.930
1637884411.859,33.691,28.320,27.344,19.531,6.836
1637884411.872,42.969,26.855,28.320,26.367,49.316
1637884411.876,43.457,27.832,28.320,33.691,62.500
1637884411.880,31.738,28.809,27.344,23.438,28.809
1637884411.884,29.785,31.738,28.320,20.996,58.105
1637884411.888,36.133,29.785,31.250,27.344,82.520
1637884411.892,29.297,24.902,29.785,22.949,69.336
1637884411.896,21.973,26.855,29.297,19.531,-33.203
1637884411.899,23.926,26.855,34.180,19.531,-39.062
1637884411.903,30.273,28.320,35.156,23.926,38.086
1637884411.907,32.715,33.203,31.250,32.227,81.543
1637884411.911,25.879,33.203,31.738,21.973,35.156
1637884411.915,23.926,31.250,34.180,19.043,-6.836
1637884411.911,27.344,29.785,32.715,25.879,-1.953
1637884411.915,25.879,29.785,33.203,25.391,70.801
1637884411.919,23.438,27.832,34.180,23.438,78.125
1637884411.923,20.996,27.832,31.250,20.996,8.789
1637884411.927,20.020,27.832,31.250,18.066,2.930
1637884411.931,23.926,28.320,33.691,24.414,52.246
1637884411.935,25.879,28.809,31.250,33.203,28.809
1637884411.938,21.973,27.344,28.809,28.320,-35.156
1637884411.942,20.508,28.809,25.879,20.020,-68.359
1637884411.946,28.809,33.691,33.203,25.391,8.789
1637884411.950,30.273,32.715,36.133,27.344,108.887
1637884411.954,23.926,30.762,27.344,19.043,15.137
1637884411.966,21.973,30.762,25.879,20.996,-30.762
1637884411.970,26.855,28.809,28.320,23.926,29.785
1637884411.974,33.203,32.715,30.762,27.344,60.547
1637884411.978,33.691,34.180,32.715,26.367,32.715
1637884411.982,31.250,32.715,33.691,23.926,22.461
1637884411.986,29.297,28.809,30.273,27.832,-10.742
1637884411.990,31.250,27.344,30.273,28.809,42.480
1637884411.993,32.715,30.762,32.227,28.809,67.383
1637884411.997,27.832,29.297,33.691,25.391,12.695
1637884412.001,21.484,27.344,33.203,20.020,2.441
1637884412.005,27.832,30.273,30.273,22.949,64.941
1637884412.009,32.715,30.273,29.297,24.902,59.570
1637884412.004,25.391,27.344,27.832,23.438,6.836
1637884412.008,27.832,28.320,30.273,30.273,-19.043
1637884412.012,34.668,33.691,36.133,38.574,6.348
1637884412.016,32.715,31.250,36.133,32.715,51.758
1637884412.020,27.344,29.297,32.227,23.438,41.992
1637884412.024,22.949,29.785,31.250,21.484,-25.879
1637884412.028,26.855,29.297,29.785,21.484,-18.066
1637884412.031,30.762,33.203,26.855,26.855,98.145
1637884412.035,24.414,32.715,32.227,23.438,66.895
1637884412.039,24.902,31.738,37.109,17.578,-21.973
1637884412.043,28.809,32.227,32.227,23.438,-40.527
1637884412.047,30.762,33.203,26.367,27.344,36.621
1637884412.060,31.738,32.715,22.949,26.855,81.055
1637884412.064,29.785,31.738,25.879,22.949,35.156
1637884412.068,27.344,30.273,35.645,19.043,-6.348
1637884412.072,28.320,29.297,38.574,21.484,25.391
1637884412.076,20.996,29.785,31.250,18.066,109.863
1637884412.080,15.625,27.832,29.785,14.648,27.832
1637884412.084,21.484,30.273,30.762,18.555,-47.363
1637884412.087,25.391,32.715,29.297,19.043,33.203
1637884412.091,24.414,30.762,29.297,20.020,38.086
1637884412.095,23.438,35.156,32.227,25.879,-40.527
1637884412.099,29.785,37.109,33.203,27.832,-63.965
1637884412.103,32.227,30.762,27.344,20.996,-11.230
1637884412.098,25.391,30.762,26.855,20.020,64.941
1637884412.102,25.391,33.691,28.809,16.113,89.355
1637884412.106,25.879,30.273,31.250,13.672,19.531
1637884412.110,21.973,31.250,29.785,17.578,-4.883
1637884412.114,25.879,32.715,29.297,22.949,75.195
1637884412.118,29.297,30.762,30.273,26.367,64.941
1637884412.122,31.738,33.691,24.902,23.926,15.137
1637884412.125,28.809,33.691,26.367,20.996,-0.977
1637884412.129,28.320,29.785,30.273,25.391,17.578
1637884412.133,32.227,32.227,31.738,31.250,30.762
1637884412.137,28.809,30.762,34.180,27.344,-16.113
1637884412.141,27.344,30.273,31.738,22.949,-6.836
1637884412.154,26.367,31.250,35.156,26.855,48.828
1637884412.158,25.879,30.273,35.156,27.832,76.172
1637884412.162,23.926,30.273,33.203,22.461,39.062
1637884412.166,21.973,28.320,29.785,20.508,-19.043
1637884412.170,22.949,26.367,26.367,22.461,-35.645
1637884412.174,26.855,24.902,31.250,25.879,41.992
1637884412.178,27.832,24.902,32.227,23.926,48.828
1637884412.181,26.367,23.926,32.227,19.531,-30.273
1637884412.185,23.438,25.879,33.691,22.461,-15.625
1637884412.189,29.785,29.297,32.715,35.156,53.223
1637884412.193,34.180,30.273,35.156,34.180,67.383
1637884412.197,25.391,27.344,34.668,19.531,8.301
1637884412.191,24.414,27.832,33.691,17.578,-11.719
1637884412.195,28.809,29.297,34.668,23.438,33.203
1637884412.199,25.879,28.809,32.715,22.461,56.152
1637884412.203,22.461,30.762,28.320,16.602,-8.301
1637884412.207,26.367,32.715,31.738,21.973,-41.504
1637884412.211,27.832,32.715,33.691,27.832,-14.160
1637884412.215,26.367,29.785,31.250,24.414,69.824
1637884412.218,21.484,28.809,32.227,22.461,97.656
1637884412.222,19.043,29.785,31.250,17.090,40.527
1637884412.226,29.297,34.668,27.344,10.742,-10.742
1637884412.230,35.156,34.668,25.879,19.531,44.922
1637884412.234,27.832,34.180,26.367,18.555,93.750
1637884412.247,30.762,34.668,25.391,7.812,29.785
1637884412.251,33.203,32.227,29.297,9.277,1.465
1637884412.255,32.715,32.227,30.762,17.090,82.031
1637884412.259,33.203,35.156,26.855,19.043,92.285
1637884412.263,27.832,36.621,26.367,15.137,26.367
1637884412.267,26.367,35.156,27.344,14.160,-12.695
1637884412.271,33.691,37.109,30.273,11.719,32.715
1637884412.274,38.574,39.551,31.250,17.090,75.195
1637884412.278,35.645,36.621,28.320,18.066,37.598
1637884412.282,30.273,32.715,29.785,12.695,-0.977
1637884412.286,31.250,30.273,25.879,18.066,14.648
1637884412.290,34.668,33.203,21.973,23.438,74.219
1637884412.285,28.320,32.227,26.367,18.555,18.066
1637884412.289,24.902,30.273,29.785,14.160,-56.641
1637884412.293,27.344,34.180,26.855,13.672,-51.758
1637884412.297,34.668,34.668,21.973,20.508,16.602
1637884412.301,31.738,33.203,26.367,18.555,57.617
1637884412.305,28.809,34.668,33.203,16.113,6.348
1637884412.309,30.273,33.691,31.738,15.137,12.695
1637884412.312,26.855,30.273,29.785,13.672,59.570
1637884412.316,22.949,28.809,26.367,8.789,90.820
1637884412.320,20.996,30.762,21.973,0.977,50.781
1637884412.324,23.438,31.250,22.949,5.371,-17.578
1637884412.328,32.715,32.715,27.344,19.043,23.926
1637884412.341,36.133,30.762,25.879,36.621,80.078
1637884412.345,31.250,30.762,25.391,32.227,-11.230
1637884412.349,30.273,33.203,32.227,29.785,-13.184
1637884412.353,32.715,33.203,32.227,39.062,49.316
1637884412.357,37.598,30.273,28.320,42.969,65.918
1637884412.361,36.133,31.250,29.297,37.109,42.969
1637884412.365,31.250,33.203,33.203,30.273,-20.996
1637884412.368,25.879,33.203,38.574,33.203,-20.508
1637884412.372,29.785,29.297,35.156,39.551,69.336
1637884412.376,34.180,27.832,31.738,42.480,85.449
1637884412.380,29.297,28.809,37.598,34.180,36.133
1637884412.384,30.273,29.785,39.551,32.715,-9.277
1637884412.379,36.133,28.809,36.133,40.527,36.621
1637884412.383,36.133,29.297,36.621,38.086,67.871
1637884412.387,26.855,26.367,34.180,26.855,9.277
1637884412.391,20.020,24.902,30.762,20.020,8.301
1637884412.395,21.973,25.879,30.762,20.020,18.066
1637884412.399,25.879,25.879,30.762,20.996,111.328
1637884412.403,25.391,31.250,30.762,18.555,55.176
1637884412.406,20.020,31.250,31.250,16.602,-22.461
1637884412.410,17.090,24.414,27.832,9.277,16.602
1637884412.414,22.949,25.879,28.320,8.301,58.105
1637884412.418,24.902,22.461,31.250,12.695,85.449
1637884412.422,22.949,20.508,28.809,12.695,22.461
1637884412.435,19.043,26.367,28.809,16.113,-30.273
1637884412.439,22.949,26.855,31.250,28.320,37.109
1637884412.443,20.996,24.902,30.762,24.414,106.445
1637884412.447,14.648,29.297,31.250,7.324,48.828
1637884412.451,12.695,28.809,33.203,8.789,4.883
1637884412.455,16.113,27.344,34.668,15.137,54.688
1637884412.459,21.484,30.273,31.250,12.207,66.895
1637884412.462,26.367,34.180,28.320,12.695,10.254
1637884412.466,27.832,36.133,28.320,16.113,15.137
1637884412.470,36.133,34.180,27.344,22.949,51.758
1637884412.474,39.551,34.180,26.855,27.832,74.219
1637884412.478,33.691,32.227,31.250,20.996,25.879
1637884412.472,34.180,32.715,26.367,19.531,-19.043
1637884412.476,35.156,33.691,28.320,20.508,-14.648
1637884412.480,34.180,32.227,34.180,17.090,94.727
1637884412.484,31.738,32.715,29.297,20.020,70.801
1637884412.488,26.855,37.109,28.320,16.113,-9.277
1637884412.492,25.391,36.621,27.344,11.230,-41.016
1637884412.496,34.180,34.668,25.391,14.648,6.836
1637884412.499,36.133,34.668,24.414,21.484,116.211
1637884412.503,30.762,35.156,28.320,19.043,50.293
1637884412.507,33.691,35.645,28.809,15.625,-34.180
1637884412.511,41.016,33.203,26.367,27.344,39.062
1637884412.515,42.969,30.762,29.297,31.738,64.941
1637884412.529,41.992,33.691,22.461,25.879,-32.227
1637884412.533,43.457,36.621,23.438,19.043,-67.871
1637884412.537,46.875,35.645,35.156,21.973,-30.762
1637884412.541,48.828,35.645,33.691,29.297,41.504
1637884412.545,44.434,32.715,32.227,29.297,31.738
1637884412.549,39.551,29.785,34.180,25.391,0.000
1637884412.553,37.109,32.227,32.715,23.438,-20.020
1637884412.556,34.180,31.738,33.203,31.250,25.879
1637884412.560,25.879,28.809,34.180,33.691,70.801
1637884412.564,15.625,30.273,32.227,24.902,26.855
1637884412.568,7.812,28.809,31.250,19.531,-42.969
1637884412.572,18.066,31.250,38.086,26.367,-1.953
1637884412.566,24.414,35.156,37.109,27.832,30.273
1637884412.570,10.742,28.809,28.809,12.207,9.766
1637884412.574,12.695,28.809,26.855,11.230,12.207
1637884412.578,23.926,33.203,27.832,26.367,71.289
1637884412.582,25.391,32.715,28.320,24.414,92.285
1637884412.586,18.555,29.297,24.414,13.184,20.996
1637884412.590,21.484,29.297,27.832,11.719,0.977
1637884412.593,30.273,32.227,28.809,21.484,9.766
1637884412.597,37.598,34.668,26.367,23.926,73.730
1637884412.601,36.621,30.273,32.715,20.020,61.035
1637884412.605,30.273,27.344,35.645,20.020,-3.418
1637884412.609,31.250,32.715,34.668,19.043,-14.160
1637884412.623,38.574,33.691,35.156,20.020,34.668
1637884412.627,39.551,33.691,35.645,14.160,43.945
1637884412.631,32.227,33.691,34.668,17.578,-29.785
1637884412.635,26.367,27.832,37.109,22.461,-40.527
1637884412.639,28.809,26.855,37.598,25.391,74.219
1637884412.643,28.809,27.344,35.645,27.832,74.707
1637884412.647,17.578,25.391,36.133,17.578,5.859
1637884412.650,19.531,30.273,36.133,20.508,4.883
1637884412.654,20.508,31.738,33.203,25.391,21.973
1637884412.658,15.137,23.926,30.273,23.438,97.168
1637884412.662,18.066,26.367,30.273,21.973,25.391
1637884412.666,18.555,29.785,29.785,16.113,-65.918
1637884412.660,20.020,27.832,32.227,19.531,-31.250
1637884412.664,29.785,31.738,35.156,31.250,41.992
1637884412.668,29.297,32.715,35.645,32.715,48.340
1637884412.672,26.367,31.738,32.715,28.809,-20.020
1637884412.676,33.691,32.227,33.203,33.203,-34.668
1637884412.680,42.480,31.250,30.762,34.180,28.809
1637884412.684,43.945,32.715,29.785,30.762,64.941
1637884412.687,41.992,34.668,35.156,30.273,6.836
1637884412.691,44.434,34.668,34.180,35.156,-46.387
1637884412.695,51.758,35.156,28.320,37.598,41.992
1637884412.699,51.270,34.668,27.344,30.762,86.426
1637884412.703,41.504,35.645,30.762,20.996,32.715
1637884412.716,37.598,38.086,29.785,18.066,33.691
1637884412.720,40.527,41.016,30.273,20.996,37.598
1637884412.724,43.457,37.109,35.156,27.344,98.633
1637884412.728,33.691,32.715,39.551,24.414,72.754
1637884412.732,23.926,32.227,35.156,16.602,-15.137
1637884412.736,27.344,31.250,32.227,24.414,5.859
1637884412.740,27.344,28.809,34.668,26.367,78.125
1637884412.743,28.809,30.273,29.297,15.625,52.734
1637884412.747,27.832,32.227,27.832,20.508,-31.250
1637884412.751,21.973,31.738,32.715,26.367,-37.109
1637884412.755,27.832,30.762,31.250,20.020,12.207
1637884412.759,28.809,27.344,29.297,17.090,85.938
1637884412.754,27.344,28.809,31.738,16.113,41.504
1637884412.758,30.273,31.738,30.762,20.996,-33.691
1637884412.762,34.180,27.832,28.809,32.715,12.695
1637884412.766,34.668,30.762,27.832,25.879,94.727
1637884412.770,34.668,33.203,27.832,14.648,32.227
1637884412.774,39.551,35.645,29.297,19.531,3.418
1637884412.778,38.086,34.668,25.391,29.297,67.871
1637884412.781,35.645,30.273,24.414,36.133,99.609
1637884412.785,33.203,29.297,34.668,29.297,53.223
1637884412.789,28.809,28.320,39.551,21.484,-21.973
1637884412.793,21.973,27.344,34.180,20.508,-22.949
1637884412.797,21.973,26.855,31.738,32.227,72.266
1637884412.810,22.949,25.391,32.715,35.156,98.145
1637884412.814,17.578,28.320,26.367,21.973,43.945
1637884412.818,19.043,29.785,29.785,20.508,24.902
1637884412.822,20.996,29.785,33.691,35.645,53.711
1637884412.826,21.484,31.738,29.785,37.598,54.199
1637884412.830,20.508,30.273,30.762,24.902,-37.598
1637884412.834,19.531,27.832,27.832,17.090,-32.715
1637884412.837,23.438,28.320,25.391,24.414,38.086
1637884412.841,25.879,30.273,24.902,30.273,76.172
1637884412.845,29.785,31.250,22.949,26.367,3.418
1637884412.849,30.273,29.297,27.344,24.902,-5.859
1637884412.853,29.785,31.250,32.715,25.391,50.781
1637884412.848,29.785,30.762,34.180,27.344,55.176
1637884412.852,22.949,26.367,28.809,20.996,26.367
1637884412.856,20.508,26.855,22.949,13.672,-42.480
1637884412.860,21.973,31.250,25.391,10.254,-41.016
1637884412.864,20.020,30.762,30.273,17.578,61.523
1637884412.868,17.090,29.785,28.320,16.602,85.449
1637884412.872,13.184,29.785,26.367,7.324,50.781
1637884412.875,9.277,27.344,26.855,7.324,-2.441
1637884412.879,16.602,29.785,29.785,12.695,-2.441
1637884412.883,21.973,32.715,30.762,20.020,57.129
1637884412.887,20.508,31.250,36.621,20.020,62.012
1637884412.891,19.531,31.250,37.109,21.973,-29.785
1637884412.904,15.137,29.785,28.320,23.438,-52.246
1637884412.908,18.555,26.367,31.250,20.996,30.273
1637884412.912,10.254,28.809,36.133,20.996,36.621
1637884412.916,4.395,28.320,37.109,17.090,-56.641
1637884412.920,18.555,27.344,44.434,25.879,-4.395
1637884412.924,27.344,27.832,44.922,36.621,96.191
1637884412.928,22.949,26.855,37.109,26.855,53.711
1637884412.931,18.066,24.414,37.109,16.602,39.062
1637884412.935,20.508,25.391,38.574,17.578,11.230
1637884412.939,22.949,27.832,39.551,22.461,52.734
1637884412.943,24.414,28.320,34.668,18.555,98.633
1637884412.947,27.344,31.738,30.762,14.648,32.227
1637884412.941,26.367,30.762,29.785,8.789,-31.250
1637884412.945,29.785,34.180,30.273,7.324,0.488
1637884412.949,34.180,41.504,32.715,19.043,54.199
1637884412.953,31.738,40.527,30.273,15.137,-10.742
1637884412.957,32.227,41.016,29.297,9.277,-6.836
1637884412.961,35.156,42.969,28.809,21.484,34.180
1637884412.965,37.109,41.992,27.832,29.785,80.078
1637884412.968,31.738,40.527,30.762,20.996,42.969
1637884412.972,28.320,40.527,33.203,20.996,-29.297
1637884412.976,34.180,39.062,35.156,24.902,-15.137
1637884412.980,34.180,37.598,35.156,23.926,94.727
1637884412.984,31.738,38.086,34.668,24.902,123.535
1637884412.997,30.762,37.109,34.180,22.949,-3.418
1637884413.001,32.227,39.551,34.180,19.531,-21.484
1637884413.005,40.039,44.434,38.086,36.133,6.836
1637884413.009,47.852,46.875,36.621,49.316,35.645
1637884413.013,40.039,41.504,33.203,38.086,41.016
1637884413.017,33.203,36.621,31.738,38.086,-30.762
1637884413.021,36.133,39.062,29.297,40.527,-29.297
1637884413.024,38.574,38.574,26.855,33.203,41.016
1637884413.028,33.691,34.180,24.902,29.297,-2.441
1637884413.032,25.391,32.715,27.344,28.809,-37.598
1637884413.036,26.367,34.180,29.297,27.344,4.883
1637884413.040,30.273,36.621,26.367,26.855,85.449
1637884413.035,26.855,37.598,25.879,31.250,56.152
1637884413.039,24.902,34.668,27.344,31.738,0.488
1637884413.043,30.273,37.598,25.391,26.855,55.176
1637884413.047,37.598,41.504,24.414,29.785,92.773
1637884413.051,35.645,39.062,23.926,29.297,94.727
1637884413.055,28.809,38.086,22.461,21.973,45.410
1637884413.059,26.367,38.086,25.391,20.020,25.879
1637884413.062,30.762,40.527,28.809,20.996,77.637
1637884413.066,25.391,36.621,25.391,20.508,53.223
1637884413.070,19.531,31.738,30.762,14.160,-23.438
1637884413.074,19.531,33.691,38.574,12.695,-7.812
1637884413.078,22.949,33.691,33.203,16.602,15.137
1637884413.091,24.902,28.809,22.949,19.531,48.340
1637884413.095,20.508,28.809,24.902,12.695,47.852
1637884413.099,21.484,33.203,29.785,12.695,-25.391
1637884413.103,19.531,33.691,28.809,16.602,-67.383
1637884413.107,20.508,29.785,28.809,18.555,54.199
1637884413.111,22.461,30.273,31.250,16.113,62.012
1637884413.115,20.020,31.250,32.715,11.230,0.488
1637884413.118,17.578,33.203,33.691,14.648,-27.344
1637884413.122,19.531,33.691,36.133,21.484,35.156
1637884413.126,19.531,31.738,32.715,23.926,66.406
1637884413.130,15.625,33.691,29.297,17.090,6.348
1637884413.134,20.996,35.156,30.273,20.020,-12.695
1637884413.129,26.367,34.180,27.344,26.855,5.371
1637884413.133,21.973,34.668,27.344,26.367,101.562
1637884413.137,19.043,31.250,31.738,27.832,39.551
1637884413.141,21.973,30.762,38.574,21.484,-52.734
1637884413.145,25.879,34.668,37.598,21.484,-12.695
1637884413.149,32.227,32.715,32.715,32.715,37.109
1637884413.153,27.832,31.738,32.715,29.785,32.227
1637884413.156,24.414,34.668,30.273,27.344,-0.977
1637884413.160,28.809,33.203,28.809,27.832,-12.695
1637884413.164,30.273,30.762,29.297,31.250,64.453
1637884413.168,28.809,32.227,28.320,39.551,66.406
1637884413.172,31.738,33.691,26.855,32.227,10.742
1637884413.185,34.668,34.180,26.367,22.949,-9.277
1637884413.189,30.762,32.227,25.391,25.879,54.199
1637884413.193,25.879,30.273,24.414,21.484,42.480
1637884413.197,24.902,31.738,24.414,9.277,-22.461
1637884413.201,27.344,33.203,24.902,6.348,-22.461
1637884413.205,28.320,33.203,22.949,11.230,38.086
1637884413.209,29.297,35.645,21.973,12.695,87.891
1637884413.212,28.320,35.156,20.508,10.742,19.043
1637884413.216,30.762,33.691,24.902,15.137,-8.301
1637884413.220,32.715,35.156,26.855,16.113,-6.836
1637884413.224,25.879,30.762,24.414,16.113,47.363
1637884413.228,20.996,30.762,23.926,14.648,59.570
1637884413.222,20.508,32.227,22.949,10.742,-13.184
1637884413.226,21.973,30.273,25.391,13.184,6.836
1637884413.230,26.855,31.250,28.809,26.367,128.418
1637884413.234,24.414,31.738,32.715,23.926,100.586
1637884413.238,23.926,28.809,33.691,14.160,-11.719
1637884413.242,24.902,27.344,31.738,16.602,-17.578
1637884413.246,25.879,25.391,29.297,16.602,70.312
1637884413.249,26.367,25.391,31.738,20.996,104.004
1637884413.253,20.996,28.809,36.621,14.160,48.828
1637884413.257,21.973,34.180,34.180,11.719,42.480
1637884413.261,24.902,35.156,28.320,23.926,42.480
1637884413.265,26.855,33.203,28.809,26.855,112.793
1637884413.279,28.320,33.203,26.367,25.391,92.773
1637884413.283,29.297,34.180,25.879,24.414,15.625
1637884413.287,30.273,34.180,30.273,31.250,15.137
1637884413.291,32.227,32.227,27.832,32.227,57.129
1637884413.295,29.785,33.203,25.391,23.926,20.020
1637884413.299,30.762,35.156,26.855,20.020,34.668
1637884413.303,28.320,36.621,28.809,15.625,46.875
1637884413.306,27.344,35.645,30.273,18.555,49.316
1637884413.310,25.879,34.180,27.832,22.949,67.383
1637884413.314,28.809,36.621,29.785,20.508,15.625
1637884413.318,35.156,37.109,27.344,18.555,7.324
1637884413.322,37.598,35.156,23.438,30.762,25.391
1637884413.317,40.039,36.133,30.762,34.180,62.500
1637884413.321,37.598,34.180,31.738,26.367,44.434
1637884413.325,37.109,30.762,31.250,32.227,16.113
1637884413.329,41.016,30.762,32.715,33.203,41.016
1637884413.333,39.062,30.273,34.180,31.738,66.406
1637884413.337,34.180,31.738,33.203,37.109,16.602
1637884413.341,35.156,34.180,27.832,33.691,-15.137
1637884413.344,29.297,34.668,29.297,24.414,34.180
1637884413.348,21.973,32.715,30.762,21.973,83.008
1637884413.352,20.996,29.785,28.320,17.578,10.742
1637884413.356,19.531,31.250,29.785,14.160,-22.461
1637884413.360,22.461,34.180,27.344,12.695,-3.906
1637884413.372,27.832,29.297,22.949,20.996,57.617
1637884413.376,25.391,31.738,20.996,25.391,62.012
1637884413.380,24.414,35.156,23.438,18.066,41.992
1637884413.384,27.344,31.250,25.391,16.602,27.832
1637884413.388,23.926,27.344,29.297,18.066,36.133
1637884413.392,19.043,24.414,33.203,26.367,112.305
1637884413.396,15.625,26.855,34.180,25.391,51.758
1637884413.399,5.859,27.832,32.227,10.254,-7.324
1637884413.403,6.836,27.832,31.250,10.742,39.551
1637884413.407,18.555,29.785,28.320,20.996,108.887
1637884413.411,16.602,28.809,26.367,15.137,69.336
1637884413.415,20.020,28.320,31.250,10.742,-42.969
1637884413.410,23.926,29.785,29.297,16.113,-56.152
1637884413.414,17.090,27.832,26.367,18.066,51.758
1637884413.418,18.066,25.391,25.879,18.066,25.879
1637884413.422,19.043,27.344,26.367,12.695,-63.477
1637884413.426,19.043,28.320,29.785,8.789,-17.090
1637884413.430,31.250,30.273,29.785,23.926,87.891
1637884413.434,30.762,30.762,31.738,36.621,59.570
1637884413.437,23.438,29.785,34.180,27.344,-27.344
1637884413.441,31.738,32.715,32.715,16.602,-41.992
1637884413.445,40.527,33.203,31.250,23.926,-22.461
1637884413.449,36.621,32.715,28.320,32.715,66.406
1637884413.453,29.297,31.738,27.832,27.832,30.273
1637884413.466,34.180,28.809,28.809,32.227,-22.949
1637884413.470,40.039,31.738,29.297,30.762,16.113
1637884413.474,37.109,36.133,35.645,30.762,68.848
1637884413.478,29.785,35.645,37.109,28.320,45.410
1637884413.482,26.367,31.250,34.180,19.043,12.207
1637884413.486,32.227,30.273,34.668,19.531,33.203
1637884413.490,34.180,32.715,38.574,24.414,41.992
1637884413.493,29.297,34.668,35.645,19.531,52.734
1637884413.497,26.855,37.109,33.203,14.648,7.812
1637884413.501,22.949,33.203,34.668,15.625,-40.039
1637884413.505,25.391,34.180,31.250,17.578,9.766
1637884413.509,24.902,35.156,27.832,8.301,35.156
1637884413.503,20.996,34.180,30.762,6.348,61.523
1637884413.507,20.020,34.668,32.715,18.066,20.508
1637884413.511,22.949,31.250,31.738,20.996,-13.672
1637884413.515,21.484,30.762,30.273,12.695,48.340
1637884413.519,18.555,30.273,26.855,7.812,15.625
1637884413.523,21.973,30.762,30.762,12.695,-53.223
1637884413.527,20.996,31.250,30.762,14.160,-42.969
1637884413.530,16.113,28.809,28.320,16.602,58.105
1637884413.534,11.230,27.344,29.297,12.695,55.176
1637884413.538,9.766,28.320,27.832,8.301,-40.527
1637884413.542,15.137,29.785,28.809,15.137,-37.598
1637884413.546,20.996,29.785,29.785,21.484,55.664
1637884413.560,15.137,26.855,25.879,20.508,64.453
1637884413.564,10.742,27.832,24.902,15.137,1.465
1637884413.568,8.789,26.367,28.320,17.090,-19.531
1637884413.572,11.719,23.926,28.320,22.461,30.273
1637884413.576,16.602,22.949,27.344,22.949,68.359
1637884413.580,13.672,24.414,28.320,19.531,-19.531
1637884413.584,15.625,25.391,27.832,15.137,-27.832
1637884413.587,21.973,26.855,27.344,12.695,41.504
1637884413.591,29.297,29.785,28.320,21.973,118.652
1637884413.595,33.203,32.715,26.855,31.738,79.102
1637884413.599,27.832,29.297,27.344,27.832,-48.828
1637884413.603,27.832,24.902,28.320,21.973,-52.734
1637884413.597,33.691,24.902,26.855,26.855,76.172
1637884413.601,29.297,27.832,26.855,24.902,68.359
1637884413.605,24.902,28.809,28.809,21.973,-2.930
1637884413.609,22.949,28.320,28.809,20.996,-6.348
1637884413.613,20.996,33.203,28.320,24.414,104.492
1637884413.617,25.391,32.715,30.273,30.273,120.605
1637884413.621,21.484,28.809,31.250,25.391,22.461
1637884413.624,16.602,32.227,27.344,24.902,28.809
1637884413.628,23.926,35.156,30.762,32.227,71.289
1637884413.632,24.902,34.180,31.250,26.855,112.793
1637884413.636,20.996,31.738,26.367,20.020,41.992
1637884413.640,25.879,31.250,26.855,25.391,35.156
1637884413.654,29.785,34.180,22.949,21.973,83.984
1637884413.658,26.855,34.180,23.438,17.090,86.914
1637884413.662,23.926,35.156,26.367,14.648,47.852
1637884413.666,22.461,34.668,26.855,17.090,-35.156
1637884413.670,23.438,35.156,28.320,19.043,-37.598
1637884413.674,29.785,36.133,24.902,17.090,67.383
1637884413.678,24.902,35.156,22.461,12.695,88.867
1637884413.681,20.996,36.133,27.344,10.742,-19.043
1637884413.685,29.297,37.598,28.320,15.625,-62.988
1637884413.689,34.668,37.109,28.809,22.949,57.129
1637884413.693,36.133,37.598,24.902,24.414,107.910
1637884413.697,24.902,31.250,23.438,7.324,49.316
1637884413.692,28.320,34.180,31.250,9.277,-8.301
1637884413.696,40.039,40.039,30.762,26.855,0.488
1637884413.700,42.480,36.621,26.855,35.156,84.473
1637884413.704,40.039,38.574,28.809,32.227,45.898
1637884413.708,30.273,36.133,30.273,22.949,10.254
1637884413.712,31.738,33.203,32.227,23.926,7.812
1637884413.716,32.227,35.156,31.250,29.785,71.289
1637884413.719,26.855,34.668,34.180,25.391,111.816
1637884413.723,26.855,33.691,34.668,17.578,-9.277
1637884413.727,32.227,36.133,30.762,19.531,-41.016
1637884413.731,39.551,33.203,32.715,30.273,89.844
1637884413.735,35.156,30.762,34.180,30.762,99.121
1637884413.747,28.809,32.227,28.809,21.973,-14.648
1637884413.751,28.320,32.715,28.809,19.531,-71.777
1637884413.755,32.227,31.738,30.273,24.414,20.996
1637884413.759,28.320,29.297,24.414,16.602,34.180
1637884413.763,26.855,31.738,28.320,15.625,-57.617
1637884413.767,34.668,33.691,33.203,28.809,-39.062
1637884413.771,34.180,31.738,30.762,22.949,-20.508
1637884413.774,30.273,30.273,28.809,22.461,59.082
1637884413.778,29.785,32.715,30.273,24.902,36.621
1637884413.782,24.902,31.738,28.809,16.602,-34.180
1637884413.786,20.996,26.855,31.250,15.137,8.789
1637884413.790,31.738,27.344,35.156,31.250,76.660
1637884413.786,32.715,28.320,35.645,34.668,52.246
1637884413.790,30.273,30.762,37.598,30.762,16.113
1637884413.794,23.438,30.273,33.203,24.902,24.902
1637884413.798,24.902,25.879,29.785,20.996,67.871
1637884413.802,34.180,31.250,35.156,29.297,73.242
1637884413.806,29.785,36.133,34.180,26.367,19.531
1637884413.810,17.578,32.227,31.738,14.648,-0.488
1637884413.813,17.090,30.273,39.551,17.090,17.578
1637884413.817,20.996,31.250,41.504,15.625,61.523
1637884413.821,15.625,31.250,39.062,9.766,23.926
1637884413.825,13.184,29.785,45.898,11.719,-54.199
1637884413.829,5.859,30.273,41.016,4.395,-30.273
1637884413.842,0.488,33.691,41.992,5.371,78.125
1637884413.846,-18.555,27.344,46.387,-11.230,66.895
1637884413.850,-38.574,21.484,51.270,-40.527,-6.348
1637884413.854,-26.367,29.297,63.477,-21.973,0.000
1637884413.858,-15.137,29.297,56.641,-1.953,88.867
1637884413.862,-21.973,24.902,52.734,-12.695,59.570
1637884413.866,-33.203,30.273,56.641,-36.133,-26.367
1637884413.869,-58.594,30.762,54.199,-70.801,-17.090
1637884413.873,-70.801,30.762,70.801,-84.473,73.242
1637884413.877,-56.152,35.156,83.496,-65.430,104.980
1637884413.881,-43.945,31.738,66.406,-47.852,14.160
1637884413.885,-47.852,32.227,63.477,-50.293,-30.762
1637884413.880,-59.570,36.133,67.871,-60.547,23.438
1637884413.884,-69.824,35.156,67.383,-73.242,59.082
1637884413.888,-83.496,30.762,69.336,-93.262,40.527
1637884413.892,-84.961,29.297,75.684,-95.703,-6.348
1637884413.896,-69.336,28.320,76.172,-78.125,-13.672
1637884413.900,-57.617,27.832,73.242,-62.988,67.383
1637884413.904,-71.777,28.320,71.289,-81.543,28.809
1637884413.907,-86.426,29.297,75.195,-98.145,23.438
1637884413.911,-69.824,28.320,78.613,-83.984,0.000
1637884413.915,-45.898,31.738,75.195,-66.895,43.457
1637884413.919,-58.105,32.715,72.266,-68.848,76.172
1637884413.923,-58.105,29.297,71.777,-61.035,-10.742
1637884413.935,-44.434,32.715,73.242,-52.246,-26.367
1637884413.939,-49.316,38.574,69.336,-60.059,41.016
1637884413.943,-47.852,32.715,65.918,-56.641,103.516
1637884413.947,-44.922,21.484,66.406,-52.734,33.691
1637884413.951,-48.828,22.461,59.082,-52.246,20.020
1637884413.955,-47.852,26.367,58.594,-56.152,82.031
1637884413.959,-41.016,25.879,59.082,-57.129,73.242
1637884413.962,-33.691,26.855,56.641,-39.551,22.461
1637884413.966,-30.762,24.902,59.570,-28.320,1.953
1637884413.970,-41.016,25.879,59.082,-37.109,38.574
1637884413.974,-50.293,28.320,56.152,-49.316,125.977
1637884413.978,-46.387,24.902,59.082,-53.711,91.797
1637884413.973,-37.598,25.391,58.105,-46.387,9.277
1637884413.977,-30.273,24.414,55.176,-20.996,-3.418
1637884413.981,-23.438,21.484,56.152,-11.230,73.730
1637884413.985,-24.414,29.297,53.223,-29.785,46.387
1637884413.989,-39.551,36.133,49.805,-50.293,-21.484
1637884413.993,-41.016,29.297,54.199,-48.828,30.273
1637884413.997,-20.020,25.391,57.617,-16.602,50.781
1637884414.000,-10.254,30.273,53.711,-5.371,62.012
1637884414.004,-17.578,31.738,48.340,-22.461,45.898
1637884414.008,-17.578,28.809,45.410,-23.926,-18.066
1637884414.012,-7.324,28.809,46.875,-10.254,3.418
1637884414.016,-13.184,31.738,43.457,-14.160,92.285
1637884414.028,-25.879,31.250,39.062,-24.902,41.992
1637884414.032,-20.020,29.297,42.480,-22.461,-7.324
1637884414.036,-5.371,32.227,41.992,-12.207,-1.465
1637884414.040,11.230,28.809,43.945,18.555,31.250
1637884414.044,13.672,26.367,44.922,31.738,11.230
1637884414.048,6.348,36.621,41.016,7.324,-5.859
1637884414.052,-0.488,41.016,38.574,-9.766,16.113
1637884414.055,3.906,35.645,37.109,-1.465,44.922
1637884414.059,6.836,36.133,37.109,7.812,50.781
1637884414.063,6.348,39.551,38.574,13.672,-14.160
1637884414.067,18.555,37.598,41.016,21.484,-43.457
1637884414.071,24.414,37.598,39.551,22.949,25.391
1637884414.067,22.949,36.133,36.133,23.926,47.852
1637884414.071,36.621,35.645,29.297,31.250,-41.504
1637884414.075,40.039,38.086,22.949,27.344,-56.641
1637884414.079,33.203,38.086,22.461,24.414,35.156
1637884414.083,50.293,36.133,20.508,47.852,100.586
1637884414.087,63.965,35.156,14.648,63.965,24.902
1637884414.091,67.871,34.180,11.719,64.453,-68.848
1637884414.094,71.289,33.203,10.254,67.383,-67.871
1637884414.098,74.707,32.227,6.836,67.383,22.461
1637884414.102,83.496,31.738,6.348,76.660,21.484
1637884414.106,90.332,34.668,6.348,88.867,-29.297
1637884414.110,92.773,31.250,6.348,93.262,-26.855
1637884414.122,104.004,28.320,3.418,101.562,73.242
1637884414.126,100.098,31.738,-2.441,97.656,121.094
1637884414.130,97.168,31.250,-2.441,95.703,-1.465
1637884414.134,113.281,29.297,-2.441,105.469,-27.344
1637884414.138,119.141,31.738,-4.883,105.469,38.086
1637884414.142,115.234,34.180,-2.441,99.121,68.359
1637884414.146,111.816,35.156,-3.906,97.168,28.320
1637884414.149,111.816,35.645,-6.348,104.004,13.672
1637884414.153,114.258,34.180,-3.418,110.840,42.480
1637884414.157,115.234,32.715,-3.418,116.211,70.801
1637884414.161,112.305,34.668,-4.883,102.539,36.621
1637884414.165,110.840,35.645,-5.371,92.773,33.203
1637884414.160,111.816,33.203,-3.418,96.191,32.715
1637884414.164,115.234,31.250,-4.883,95.703,52.734
1637884414.168,113.281,33.203,-2.930,91.797,54.688
1637884414.172,108.398,36.133,0.000,87.891,-22.461
1637884414.176,108.887,38.574,1.953,85.938,-36.621
1637884414.180,114.258,39.551,2.930,88.867,17.090
1637884414.184,112.793,36.133,3.418,95.703,46.875
1637884414.187,103.027,32.715,6.836,95.215,-35.645
1637884414.191,97.656,33.203,5.859,82.031,-74.219
1637884414.195,98.145,34.180,7.324,81.543,2.930
1637884414.199,93.750,34.180,11.719,92.773,86.914
1637884414.203,84.473,34.180,14.160,90.332,29.297
1637884414.216,86.426,31.738,17.090,84.473,2.930
1637884414.220,86.426,30.273,15.625,83.984,27.832
1637884414.224,81.055,32.715,12.207,83.496,65.918
1637884414.228,76.172,30.762,14.648,78.125,89.844
1637884414.232,71.289,28.320,16.113,74.219,19.531
1637884414.236,71.777,32.227,15.625,74.707,-9.766
1637884414.240,73.730,35.156,14.160,77.637,76.660
1637884414.243,75.195,31.738,13.184,78.613,78.613
1637884414.247,70.312,30.273,13.184,66.895,-1.465
1637884414.251,68.359,34.668,11.719,53.711,-17.090
1637884414.255,71.777,35.156,17.578,61.035,26.367
1637884414.259,63.477,32.227,20.508,63.477,87.402
1637884414.254,56.152,33.691,16.113,57.617,12.207
1637884414.258,56.641,32.715,15.625,52.734,-50.293
1637884414.262,54.688,28.809,17.578,54.199,45.898
1637884414.266,57.129,28.809,17.090,61.523,73.730
1637884414.270,56.641,30.762,12.695,58.594,10.254
1637884414.274,53.223,29.297,14.160,53.223,-28.809
1637884414.278,51.270,27.832,20.020,56.152,-6.836
1637884414.281,50.781,28.320,17.578,61.523,106.445
1637884414.285,47.852,29.785,10.742,47.852,69.824
1637884414.289,44.434,32.715,15.625,35.645,-27.832
1637884414.293,42.969,31.738,20.508,39.551,2.930
1637884414.297,41.992,30.273,20.020,41.504,42.480
1637884414.311,40.527,30.273,18.066,39.551,87.891
1637884414.315,41.992,30.762,17.090,33.203,53.223
1637884414.319,43.457,30.762,20.508,31.250,-35.156
1637884414.323,42.480,28.320,18.066,39.551,21.973
1637884414.327,40.527,29.785,14.648,43.945,126.465
1637884414.331,33.691,29.785,18.066,30.273,20.996
1637884414.335,36.621,31.250,21.973,20.996,-49.805
1637884414.338,42.969,36.133,20.508,24.902,-7.324
1637884414.342,43.945,34.668,19.531,26.855,98.633
1637884414.346,39.062,32.227,26.367,26.855,42.480
1637884414.350,34.668,34.668,23.926,22.949,-36.133
1637884414.354,34.180,31.738,17.578,25.879,-15.137
1637884414.347,35.645,27.832,22.949,30.762,57.129
1637884414.351,31.250,27.832,26.855,26.855,71.777
1637884414.355,27.344,27.832,26.855,20.996,-37.598
1637884414.359,26.367,26.855,28.809,19.043,-83.496
1637884414.363,27.832,27.832,27.344,31.738,22.949
1637884414.367,26.367,27.832,23.438,32.715,96.680
1637884414.371,24.902,25.879,20.508,20.508,-13.672
1637884414.374,28.809,26.367,20.996,28.809,-66.895
1637884414.378,34.180,28.320,22.949,33.203,17.578
1637884414.382,42.480,32.715,25.879,30.273,139.648
1637884414.386,36.621,32.715,25.391,24.414,93.262
1637884414.390,24.902,24.902,26.367,22.461,36.621
1637884414.404,32.227,23.926,28.320,31.738,43.945
1637884414.408,39.551,27.344,23.926,26.855,61.035
1637884414.412,31.738,24.902,22.949,22.461,72.754
1637884414.416,28.809,25.391,26.367,23.438,-22.461
1637884414.420,31.250,28.320,25.879,25.391,-24.414
1637884414.424,36.133,29.785,22.461,31.250,92.773
1637884414.428,35.156,31.250,23.438,24.414,62.988
1637884414.431,26.367,29.297,28.320,21.973,-19.043
1637884414.435,27.832,29.297,28.320,23.926,-41.992
1637884414.439,31.250,31.250,23.926,32.715,48.340
1637884414.443,30.762,33.691,24.902,32.227,102.539
1637884414.447,30.762,34.668,28.320,21.973,49.805
1637884414.441,29.785,34.180,26.855,22.949,16.113
1637884414.445,28.809,33.691,27.344,25.879,31.250
1637884414.449,23.438,33.203,25.391,27.344,97.656
1637884414.453,20.996,32.227,23.438,20.996,10.254
1637884414.457,22.949,30.273,27.832,22.461,-74.707
1637884414.461,20.996,31.738,30.273,25.391,-25.391
1637884414.465,21.973,30.273,29.785,21.484,54.688
1637884414.468,25.879,30.273,30.762,20.508,46.387
1637884414.472,27.344,31.250,30.273,19.043,9.277
1637884414.476,31.250,35.156,30.762,18.555,5.371
1637884414.480,36.133,38.086,29.297,25.391,72.754
1637884414.484,34.668,33.691,24.414,26.367,112.793
1637884414.497,29.785,32.227,19.531,14.160,13.672
1637884414.501,28.320,33.691,20.996,9.766,-20.020
1637884414.505,36.133,32.227,30.762,21.484,67.383
1637884414.509,34.180,29.785,30.762,26.855,61.035
1637884414.513,25.879,25.879,27.344,22.949,-17.090
1637884414.517,26.367,26.367,31.250,19.531,-26.855
1637884414.521,25.879,30.762,33.203,20.020,27.832
1637884414.524,28.320,32.715,29.785,27.832,120.605
1637884414.528,26.367,33.203,30.273,23.926,75.684
1637884414.532,24.902,34.180,30.762,13.672,-7.324
1637884414.536,28.809,32.227,28.809,24.414,24.902
1637884414.540,34.180,31.250,31.738,32.715,69.824
1637884414.536,35.645,32.715,34.668,24.414,38.086
1637884414.540,28.809,32.227,31.738,20.508,-53.711
1637884414.544,18.555,28.320,30.273,13.672,-36.133
1637884414.548,19.531,27.344,30.273,13.672,69.824
1637884414.552,24.414,32.715,33.691,20.020,84.961
1637884414.556,21.973,32.715,33.691,17.090,-6.836
1637884414.560,18.555,28.809,28.320,11.719,-11.719
1637884414.563,20.996,27.344,31.250,17.578,77.148
1637884414.567,22.949,30.273,31.738,21.484,96.191
1637884414.571,25.879,32.715,23.926,17.578,27.344
1637884414.575,24.902,29.785,21.484,14.160,-15.625
1637884414.579,22.949,28.809,25.391,13.184,13.184
1637884414.591,24.414,28.809,32.715,14.160,92.773
1637884414.595,24.414,27.832,33.203,20.020,64.941
1637884414.599,21.484,27.344,28.320,19.043,-30.762
1637884414.603,21.973,26.855,30.762,13.672,-17.578
1637884414.607,26.367,26.855,28.809,16.113,74.707
1637884414.611,22.949,25.879,27.832,12.695,34.668
1637884414.615,20.508,24.902,27.832,9.766,-76.172
1637884414.618,22.949,23.926,27.832,13.672,-34.180
1637884414.622,26.367,28.809,27.832,25.879,43.945
1637884414.626,27.832,32.227,24.414,31.250,89.844
1637884414.630,32.227,32.715,24.414,23.926,1.465
1637884414.634,33.203,27.832,26.855,20.508,-56.641
1637884414.629,30.762,26.367,25.879,23.926,30.273
1637884414.633,34.668,32.227,23.926,23.438,134.277
1637884414.637,32.227,31.250,28.320,14.160,85.449
1637884414.641,26.367,29.785,35.645,15.625,-30.273
1637884414.645,24.414,29.785,28.320,17.090,-1.465
1637884414.649,26.855,26.855,24.902,17.578,99.121
1637884414.653,24.902,28.320,30.762,15.137,43.945
1637884414.656,20.996,32.715,29.297,14.648,-60.059
1637884414.660,22.949,29.785,21.484,15.137,-16.113
1637884414.664,32.227,28.320,22.461,18.066,96.191
1637884414.668,26.367,30.762,26.855,13.672,87.402
1637884414.672,17.090,31.250,25.391,1.465,-4.395
1637884414.685,20.996,31.738,26.367,8.301,-23.926
1637884414.689,20.020,30.273,31.250,9.277,19.043
1637884414.693,20.996,28.809,30.273,9.277,58.594
1637884414.697,24.414,27.832,26.367,16.113,43.457
1637884414.701,19.043,26.855,29.297,13.672,16.113
1637884414.705,19.531,27.832,29.297,17.578,1.465
1637884414.709,21.484,28.809,26.855,19.531,24.902
1637884414.712,16.113,27.832,27.832,13.672,24.414
1637884414.716,21.973,29.297,30.762,12.695,-10.742
1637884414.720,27.344,31.738,34.180,20.996,-0.488
1637884414.724,26.367,25.879,29.785,23.926,95.703
1637884414.728,20.996,24.902,22.461,13.184,31.738
1637884414.722,22.461,28.320,24.902,15.137,-33.691
1637884414.726,33.691,27.832,29.785,25.879,9.766
1637884414.730,31.250,28.809,25.391,28.320,59.082
1637884414.734,24.902,28.320,22.461,23.926,40.527
1637884414.738,27.344,27.344,24.902,23.926,-64.941
1637884414.742,30.273,25.879,25.391,27.344,-50.293
1637884414.746,37.598,28.809,27.832,36.621,63.477
1637884414.749,36.133,29.297,29.785,41.992,92.773
1637884414.753,27.344,26.855,26.367,30.762,20.996
1637884414.757,25.391,28.320,28.809,19.531,-46.875
1637884414.761,25.391,27.344,32.715,23.926,-8.301
1637884414.765,25.879,28.809,27.344,30.273,108.887
1637884414.780,25.879,33.203,26.855,23.438,58.594
1637884414.784,24.902,30.762,30.273,12.695,-38.574
1637884414.788,18.555,31.250,29.785,13.672,-23.926
1637884414.792,22.949,36.133,29.785,22.949,58.594
1637884414.796,25.391,30.762,28.809,26.855,21.973
1637884414.800,19.043,26.367,26.855,14.160,-47.363
1637884414.804,21.484,30.273,27.832,5.859,-36.621
1637884414.807,24.902,31.738,23.926,14.648,29.785
1637884414.811,20.508,26.855,27.832,17.090,62.012
1637884414.815,19.531,26.367,32.227,13.184,-4.395
1637884414.819,19.043,30.273,27.344,8.789,-79.102
1637884414.823,23.926,30.762,30.762,12.695,-34.668
1637884414.816,30.273,31.250,32.715,21.973,92.773
1637884414.820,23.438,31.250,31.250,25.391,48.828
1637884414.824,17.090,27.832,26.367,22.461,-41.992
1637884414.828,20.508,27.344,29.297,23.438,-9.766
1637884414.832,24.414,30.273,31.738,29.297,75.684
1637884414.836,25.879,34.668,34.668,30.762,43.945
1637884414.840,22.949,35.645,35.645,26.855,-2.930
1637884414.843,20.996,30.762,30.273,24.414,10.254
1637884414.847,27.344,32.227,28.320,25.879,49.805
1637884414.851,35.156,34.668,28.320,26.855,48.340
1637884414.855,35.645,30.762,27.832,21.973,17.578
1637884414.859,34.668,31.738,28.320,17.090,56.152
1637884414.872,38.086,35.645,33.691,25.391,110.840
1637884414.876,34.180,36.133,32.715,18.555,73.242
1637884414.880,28.320,30.273,30.273,12.207,-13.672
1637884414.884,24.414,28.320,27.344,16.602,-24.902
1637884414.888,29.297,34.180,25.391,27.344,10.254
1637884414.892,34.180,34.180,24.902,29.297,80.566
1637884414.896,28.320,33.691,20.020,14.160,17.578
1637884414.899,22.949,35.156,19.531,12.695,-50.781
1637884414.903,26.855,33.691,23.438,15.137,18.555
1637884414.907,38.086,33.203,28.320,24.414,86.914
1637884414.911,39.062,34.668,28.320,30.273,74.219
1637884414.915,29.785,31.738,26.855,21.973,-17.578
1637884414.910,29.297,30.273,27.344,21.484,-41.992
1637884414.914,39.062,31.250,24.902,23.438,69.824
1637884414.918,39.062,32.227,22.949,22.949,79.590
1637884414.922,35.645,30.762,23.926,22.461,-18.555
1637884414.926,36.621,30.762,27.344,22.949,-9.766
1637884414.930,36.621,31.250,25.879,27.344,62.500
1637884414.934,31.738,30.762,25.879,27.344,45.410
1637884414.937,26.367,30.762,25.879,19.043,14.648
1637884414.941,28.320,32.715,26.367,15.625,7.812
1637884414.945,32.715,33.691,33.203,23.438,0.977
1637884414.949,37.598,32.715,36.621,30.762,36.621
1637884414.953,33.691,31.250,32.227,28.809,30.273
1637884414.966,29.297,31.250,28.320,19.043,14.648
1637884414.970,32.227,35.156,33.691,15.137,-12.695
1637884414.974,31.738,30.273,34.180,23.438,44.434
1637884414.978,22.949,25.879,31.738,19.043,58.594
1637884414.982,16.602,27.344,32.715,10.254,-20.996
1637884414.986,18.555,26.367,23.926,17.090,0.488
1637884414.990,19.043,26.855,25.879,24.902,43.457
1637884414.993,11.719,26.367,31.738,27.344,93.750
1637884414.997,12.695,25.879,28.809,24.414,12.207
1637884415.001,17.578,26.855,31.738,18.066,-41.504
1637884415.005,18.066,26.855,34.180,17.090,68.359
1637884415.009,24.902,26.855,28.809,22.949,107.910
1637884415.004,21.484,28.320,26.367,22.461,61.523
1637884415.008,17.090,30.762,32.227,17.578,-18.555
1637884415.012,25.391,33.203,30.762,24.902,22.949
1637884415.016,25.391,28.320,26.367,27.832,100.586
1637884415.020,19.531,29.297,21.484,20.508,56.641
1637884415.024,20.020,32.715,21.484,17.578,5.859
1637884415.028,21.973,30.762,26.367,16.113,11.719
1637884415.031,26.855,33.691,26.855,20.996,96.191
1637884415.035,22.461,33.691,28.320,15.625,84.473
1637884415.039,20.996,31.250,23.926,11.230,31.738
1637884415.043,26.367,30.762,21.973,16.602,10.254
1637884415.047,29.297,34.180,27.832,22.461,70.312
1637884415.060,27.344,35.156,25.879,26.367,100.586
1637884415.064,23.438,31.738,19.531,17.578,33.691
1637884415.068,23.438,29.785,23.438,15.137,-18.555
1637884415.072,25.879,31.738,21.973,20.020,21.484
1637884415.076,34.668,36.133,23.438,19.043,94.727
1637884415.080,37.598,36.133,33.691,14.160,24.414
1637884415.084,30.273,34.180,29.785,5.371,-51.270
1637884415.087,30.762,32.227,29.297,10.742,-38.086
1637884415.091,33.691,30.273,34.180,20.508,75.195
1637884415.095,27.832,33.203,31.738,16.602,76.660
1637884415.099,28.320,31.738,27.344,17.090,23.926
1637884415.103,34.668,28.809,30.762,19.531,43.945
1637884415.097,37.109,30.762,30.273,22.461,77.637
1637884415.101,37.109,32.715,28.320,22.949,26.367
1637884415.105,31.250,32.227,30.762,24.414,-4.883
1637884415.109,30.273,29.785,33.691,28.809,-4.883
1637884415.113,37.109,32.227,32.715,32.715,21.973
1637884415.117,33.203,33.203,29.297,32.227,77.148
1637884415.121,26.367,29.297,29.785,27.344,21.484
1637884415.124,30.273,31.738,30.273,26.367,29.297
1637884415.128,33.691,35.645,32.715,23.438,11.719
1637884415.132,28.320,35.156,31.738,21.973,53.711
1637884415.136,25.391,35.156,28.809,22.949,96.191
1637884415.140,24.902,33.203,26.367,21.484,12.207
1637884415.154,30.273,34.180,27.344,25.879,0.977
1637884415.158,35.156,35.645,30.273,29.785,74.707
1637884415.162,30.762,32.227,26.855,23.438,43.457
1637884415.166,28.809,31.250,20.996,18.066,-10.254
1637884415.170,31.738,31.738,21.484,20.020,24.902
1637884415.174,34.668,35.156,21.973,20.996,66.895
1637884415.178,36.133,35.156,18.555,16.602,62.988
1637884415.181,37.109,37.109,21.973,19.531,8.789
1637884415.185,32.715,36.133,24.414,23.926,20.020
1637884415.189,32.227,33.691,22.461,23.926,50.293
1637884415.193,30.762,34.180,22.949,20.996,88.867
1637884415.197,25.879,33.203,23.438,12.207,45.410
1637884415.191,27.344,30.273,23.438,10.742,-14.160
1637884415.195,28.809,27.832,22.461,16.113,-15.137
1637884415.199,23.926,27.832,22.461,17.578,59.570
1637884415.203,14.160,24.414,24.902,16.602,20.996
1637884415.207,14.160,24.902,28.320,18.066,-85.449
1637884415.211,18.555,23.926,32.227,18.066,-46.387
1637884415.215,17.578,22.461,29.785,19.531,43.945
1637884415.218,16.602,25.391,25.879,17.090,30.273
1637884415.222,20.996,30.273,28.809,13.184,-25.879
1637884415.226,21.484,30.273,29.297,14.160,-18.555
1637884415.230,17.578,25.879,18.555,19.531,48.340
1637884415.234,16.602,24.902,17.578,13.672,83.008
1637884415.247,15.137,25.391,27.344,11.230,36.621
1637884415.251,12.695,24.902,30.762,16.113,-10.254
1637884415.255,12.695,23.438,29.297,22.461,31.250
1637884415.259,16.602,22.949,28.320,21.484,48.828
1637884415.263,18.066,23.438,30.762,16.113,41.016
1637884415.267,16.113,25.391,27.344,18.555,23.926
1637884415.271,21.973,29.297,27.832,22.461,-29.297
1637884415.274,23.926,28.320,28.320,25.879,38.574
1637884415.278,18.555,27.832,27.344,20.996,26.855
1637884415.282,20.020,31.250,33.691,22.461,-19.043
1637884415.286,26.367,29.297,32.227,24.902,10.254
1637884415.290,23.438,26.367,27.832,21.973,86.914
1637884415.293,21.484,25.391,32.227,21.484,-32.227
1637884415.297,27.832,29.297,29.297,24.414,21.973
1637884415.301,33.203,28.320,31.738,25.391,73.730
1637884415.305,33.203,28.809,33.691,29.297,14.648
1637884415.309,31.738,28.809,32.715,27.832,-41.992
1637884415.312,33.691,28.320,29.785,31.738,39.551
1637884415.316,36.621,28.320,31.738,28.809,70.312
1637884415.320,31.250,27.344,25.391,20.020,30.273
1637884415.324,31.250,27.832,27.832,25.391,-5.371
1637884415.328,33.691,30.273,35.645,27.344,-25.879
1637884415.341,35.645,29.297,29.785,34.668,78.125
1637884415.345,35.156,26.367,23.438,32.227,98.145
1637884415.349,27.832,25.879,24.414,16.602,11.719
1637884415.353,30.273,29.785,25.391,20.508,-30.762
1637884415.357,38.086,28.809,27.832,32.715,24.414
1637884415.361,29.297,24.414,32.715,27.344,23.926
1637884415.365,25.391,26.367,31.738,19.531,-22.949
1637884415.368,27.832,30.762,33.203,26.367,-10.742
1637884415.372,29.297,31.738,38.086,30.762,36.621
1637884415.376,31.738,28.809,41.016,33.691,90.820
1637884415.380,26.855,28.320,34.668,27.344,25.879
1637884415.384,27.832,29.297,29.785,15.137,-10.254
1637884415.379,32.227,29.297,30.273,24.414,63.477
1637884415.383,31.250,30.762,28.809,29.297,85.449
1637884415.387,27.832,31.738,31.250,26.367,2.930
1637884415.391,25.879,29.297,34.668,20.996,-50.293
1637884415.395,26.367,31.738,30.273,16.113,-24.414
1637884415.399,25.879,32.715,18.555,20.508,66.895
1637884415.403,22.461,26.367,27.832,19.043,36.621
1637884415.406,21.973,26.367,32.715,17.090,-22.949
1637884415.410,28.320,29.785,20.508,18.555,18.555
1637884415.414,33.203,28.809,21.973,18.066,58.105
1637884415.418,28.809,27.832,22.461,12.695,36.133
1637884415.422,20.020,26.855,25.879,10.742,0.000
1637884415.435,19.043,26.367,33.203,18.066,-28.809
1637884415.439,26.367,28.809,28.809,13.672,-10.742
1637884415.443,29.785,30.762,29.297,13.184,64.453
1637884415.447,22.949,30.762,33.203,12.695,64.941
1637884415.451,16.113,31.250,28.320,4.395,10.742
1637884415.455,23.438,30.762,22.949,9.277,1.953
1637884415.459,23.926,25.391,25.879,18.066,85.938
1637884415.462,15.137,27.832,27.832,10.254,63.965
1637884415.466,21.484,34.180,27.832,8.301,6.348
1637884415.470,23.438,31.250,28.320,17.090,-5.859
1637884415.474,20.996,26.367,23.438,14.160,48.340
1637884415.478,16.602,26.367,27.344,6.348,28.809
1637884415.473,12.695,25.879,31.250,13.672,10.254
1637884415.477,18.066,28.809,28.320,24.902,50.781
1637884415.481,23.438,27.344,27.832,24.414,104.492
1637884415.485,21.973,26.367,26.367,19.043,133.789
1637884415.489,20.996,29.785,28.320,12.207,34.180
1637884415.493,22.461,32.715,29.297,15.625,-4.395
1637884415.497,24.414,29.297,26.367,22.461,44.922
1637884415.500,22.949,24.902,28.320,23.438,86.914
1637884415.504,15.137,23.438,30.273,11.230,30.762
1637884415.508,15.137,27.832,30.273,8.789,-32.227
1637884415.512,18.066,30.762,30.273,16.113,-5.859
1637884415.516,18.066,23.926,27.344,17.090,30.273
1637884415.528,14.648,22.949,30.273,15.137,-10.254
1637884415.532,17.090,27.344,32.715,13.184,-31.250
1637884415.536,21.973,27.344,30.273,18.555,-15.137
1637884415.540,24.902,26.367,31.738,28.320,44.922
1637884415.544,24.414,29.297,29.297,29.785,31.738
1637884415.548,17.090,27.832,28.809,18.066,-37.109
1637884415.552,14.648,26.367,28.809,13.672,-1.465
1637884415.555,18.555,27.344,30.762,24.414,68.359
1637884415.559,19.531,23.926,36.621,25.879,35.156
1637884415.563,16.602,22.949,35.645,17.090,-17.578
1637884415.567,20.508,25.879,35.645,20.020,27.832
1637884415.571,21.973,25.391,35.645,26.855,49.805
1637884415.566,18.066,22.949,31.250,24.902,47.363
1637884415.570,14.648,23.438,28.320,12.695,36.133
1637884415.574,17.090,24.414,30.762,7.324,5.371
1637884415.578,25.879,27.832,34.668,13.672,-10.254
1637884415.582,26.855,25.879,32.227,17.090,49.805
1637884415.586,23.438,23.926,30.762,16.602,66.895
1637884415.590,24.414,28.320,31.738,17.578,-6.836
1637884415.593,29.785,29.297,31.250,21.973,12.695
1637884415.597,36.621,29.297,27.344,23.926,76.172
1637884415.601,29.297,28.320,28.809,18.066,41.504
1637884415.605,25.391,29.785,34.180,20.508,-38.086
1637884415.609,33.691,33.691,31.738,25.391,-67.871
1637884415.622,36.621,32.715,28.809,26.367,71.289
1637884415.626,31.738,29.785,30.273,20.508,98.633
1637884415.630,27.832,28.320,31.738,18.066,32.227
1637884415.634,27.344,29.785,30.762,18.066,-33.691
1637884415.638,28.320,30.273,29.297,15.137,-39.551
1637884415.642,30.762,30.762,33.203,23.438,78.125
1637884415.646,28.320,28.809,34.668,20.996,18.555
1637884415.649,28.809,31.250,32.715,17.090,-27.832
1637884415.653,32.227,35.645,30.273,21.484,-5.371
1637884415.657,29.785,32.715,32.715,17.578,60.547
1637884415.661,27.344,32.715,37.598,11.230,68.359
1637884415.665,26.367,34.180,34.668,11.719,-41.992
1637884415.660,20.996,30.273,32.715,10.254,-24.902
1637884415.664,20.020,27.832,33.203,14.160,51.270
1637884415.668,20.508,28.809,28.320,20.996,74.707
1637884415.672,20.508,26.855,30.273,17.090,43.945
1637884415.676,18.066,26.855,30.273,13.672,1.953
1637884415.680,22.461,28.809,30.762,25.391,60.547
1637884415.684,26.367,28.809,28.809,28.809,95.215
1637884415.687,26.367,35.156,24.902,21.973,32.715
1637884415.691,29.297,33.691,27.344,17.578,18.066
1637884415.695,40.039,33.691,37.109,28.809,23.926
1637884415.699,41.992,37.598,38.086,38.086,66.895
1637884415.703,26.855,32.227,28.809,22.949,-22.461
1637884415.716,27.344,29.297,27.832,18.066,-69.824
1637884415.720,31.738,29.785,29.785,24.414,-12.207
1637884415.724,29.297,29.297,26.367,27.344,54.199
1637884415.728,30.273,29.785,26.855,26.855,52.734
1637884415.732,30.762,30.762,32.227,18.066,-50.781
1637884415.736,30.762,30.762,27.344,15.137,-23.926
1637884415.740,35.156,31.250,27.832,18.555,99.609
1637884415.743,33.691,29.785,36.621,21.973,66.895
1637884415.747,28.809,32.227,31.738,22.461,-13.672
1637884415.751,25.879,32.715,27.832,20.020,-8.301
1637884415.755,30.273,31.738,31.250,29.785,3.418
1637884415.759,34.180,32.715,34.668,40.527,46.387
1637884415.754,25.879,28.809,33.203,40.527,22.949
1637884415.758,25.391,27.832,31.738,27.344,10.254
1637884415.762,30.762,28.809,31.250,20.020,39.062
1637884415.766,31.738,31.250,30.762,23.438,64.941
1637884415.770,28.320,30.273,33.691,21.973,1.953
1637884415.774,21.973,28.809,33.691,20.996,-4.395
1637884415.778,25.879,29.785,31.250,21.484,-8.301
1637884415.781,34.180,30.273,30.273,29.297,44.922
1637884415.785,31.738,30.273,24.902,23.926,75.195
1637884415.789,29.297,31.250,24.414,13.184,-0.488
1637884415.793,28.320,28.320,29.297,19.043,18.555
1637884415.797,31.738,30.762,30.273,22.949,66.895
1637884415.810,35.156,34.668,33.203,27.832,72.266
1637884415.814,34.668,31.738,33.203,29.785,-17.578
1637884415.818,34.180,32.715,30.273,28.809,-12.207
1637884415.822,35.645,30.273,25.879,33.203,81.543
1637884415.826,35.645,30.273,25.879,33.203,86.914
1637884415.830,26.855,32.227,26.855,22.461,36.133
1637884415.834,24.414,34.668,23.438,15.625,-18.066
1637884415.837,30.273,36.621,24.902,18.066,18.066
1637884415.841,29.785,32.715,22.461,24.902,83.496
1637884415.845,29.297,34.180,24.902,26.367,37.598
1637884415.849,28.320,37.109,32.227,21.484,-5.371
1637884415.853,31.250,31.738,30.273,20.508,-35.645
1637884415.847,40.039,32.715,27.832,30.273,33.691
1637884415.851,36.133,34.180,27.344,31.738,76.172
1637884415.855,30.273,33.691,28.809,22.949,-31.250
1637884415.859,28.320,34.180,31.738,20.508,-32.715
1637884415.863,30.762,32.715,28.320,27.344,46.387
1637884415.867,30.273,31.738,29.785,27.832,41.016
1637884415.871,25.879,33.203,33.203,19.043,16.602
1637884415.874,27.832,34.668,29.785,17.578,37.109
1637884415.878,32.227,33.203,30.762,20.020,32.715
1637884415.882,34.668,31.250,33.203,22.949,50.293
1637884415.886,31.738,34.668,30.273,23.926,20.996
1637884415.890,31.250,33.203,34.180,28.320,8.301
1637884415.904,34.180,32.227,36.621,34.668,59.570
1637884415.908,39.062,36.133,35.645,32.227,81.543
1637884415.912,36.621,32.715,34.180,34.180,34.180
1637884415.916,28.320,30.762,32.715,38.574,-48.340
1637884415.920,24.902,28.809,32.227,30.762,-83.496
1637884415.924,25.391,27.832,32.227,27.832,14.160
1637884415.928,26.367,28.320,34.668,24.902,58.594
1637884415.931,29.297,31.738,32.227,30.273,38.574
1637884415.935,29.785,33.203,33.203,32.715,13.184
1637884415.939,29.297,34.180,34.668,30.273,36.621
1637884415.943,29.297,33.691,35.645,34.180,106.934
1637884415.947,20.508,32.227,33.691,21.973,36.133
1637884415.942,18.066,28.320,31.250,19.531,-4.883
1637884415.946,22.949,28.809,33.691,30.273,53.223
1637884415.950,26.367,31.738,33.203,36.133,103.516
1637884415.954,20.996,29.297,27.344,26.855,43.945
1637884415.958,15.625,26.855,26.367,19.043,-7.324
1637884415.962,19.531,24.414,32.227,20.020,-7.324
1637884415.966,25.391,29.297,30.273,22.949,81.055
1637884415.969,24.414,34.180,30.273,24.902,62.988
1637884415.973,22.949,31.738,36.133,20.020,-21.973
1637884415.977,22.949,32.715,32.227,21.973,-12.695
1637884415.981,23.926,30.762,26.855,26.855,43.457
1637884415.985,21.973,27.832,32.715,24.902,64.453
1637884415.997,17.090,29.297,32.715,21.973,46.875
1637884416.001,17.578,30.273,30.762,19.531,58.594
1637884416.005,24.414,28.809,31.738,26.855,99.121
1637884416.009,24.902,27.832,27.832,26.855,100.098
1637884416.013,17.090,28.320,30.762,19.043,4.883
1637884416.017,19.043,32.227,31.738,18.555,-36.133
1637884416.021,21.973,33.691,27.832,17.578,-0.488
1637884416.024,20.996,33.203,29.785,22.461,61.035
1637884416.028,18.066,33.691,30.762,24.902,21.484
1637884416.032,15.625,34.668,33.691,9.277,-2.441
1637884416.036,19.531,34.180,30.762,2.930,-5.371
1637884416.040,27.832,34.668,25.879,13.672,42.480
1637884416.035,26.855,36.621,31.250,16.113,66.895
1637884416.039,23.926,37.598,29.785,9.277,1.465
1637884416.043,25.879,33.691,23.438,14.160,-27.344
1637884416.047,24.902,32.227,24.902,18.555,0.488
1637884416.051,25.391,37.109,24.414,16.113,60.059
1637884416.055,27.344,37.109,22.461,10.742,15.625
1637884416.059,20.996,34.180,22.949,9.277,-9.277
1637884416.062,22.461,37.109,26.855,19.043,63.965
1637884416.066,26.855,38.086,27.344,20.996,74.219
1637884416.070,17.090,31.250,23.438,6.836,38.574
1637884416.074,14.160,30.762,20.508,3.906,4.395
1637884416.078,18.555,34.668,19.043,10.742,-2.441
1637884416.091,23.438,33.203,24.902,17.090,76.172
1637884416.095,23.926,33.691,30.762,11.230,45.410
1637884416.099,23.926,33.203,28.320,11.719,-18.066
1637884416.103,25.879,30.273,26.367,27.344,-9.766
1637884416.107,24.414,32.227,29.297,27.344,64.453
1637884416.111,26.367,31.738,27.832,22.461,56.152
1637884416.115,26.367,30.273,29.297,21.484,21.484
1637884416.118,22.461,28.809,33.203,18.555,35.645
1637884416.122,22.949,28.320,37.598,23.926,55.664
1637884416.126,21.973,28.320,36.133,24.902,62.988
1637884416.130,18.066,27.832,28.320,19.531,11.719
1637884416.134,20.996,27.832,24.902,10.742,20.508
1637884416.129,25.391,27.832,25.879,17.090,66.895
1637884416.133,28.809,29.785,25.391,34.180,85.938
1637884416.137,30.273,30.273,26.855,40.039,28.320
1637884416.141,27.832,28.809,31.250,24.902,16.113
1637884416.145,30.762,29.785,35.645,12.695,14.648
1637884416.149,35.156,28.809,36.621,18.066,51.270
1637884416.153,28.809,27.344,34.668,17.578,66.895
1637884416.156,27.344,29.297,34.180,16.113,-25.391
1637884416.160,27.344,30.273,31.250,15.625,-18.555
1637884416.164,26.367,32.715,29.785,25.391,65.430
1637884416.168,30.273,33.203,32.715,34.668,85.449
1637884416.172,26.367,27.344,32.227,26.855,-2.441
1637884416.185,23.438,26.855,31.250,25.391,-37.598
1637884416.189,28.320,29.785,34.668,27.344,43.457
1637884416.193,25.391,29.785,32.715,27.344,58.105
1637884416.197,23.438,29.785,30.273,24.902,22.949
1637884416.201,23.438,31.738,31.250,20.020,-15.625
1637884416.205,25.391,30.762,28.809,24.902,-5.371
1637884416.209,28.809,28.320,27.344,26.855,75.195
1637884416.212,23.926,28.320,31.250,20.508,26.855
1637884416.216,23.438,28.320,32.715,21.973,-30.762
1637884416.220,30.762,25.879,33.203,25.391,35.645
1637884416.224,34.668,25.879,28.320,26.367,107.422
1637884416.228,35.156,27.344,25.391,24.414,28.809
1637884416.223,36.621,28.320,36.133,22.461,-63.965
1637884416.227,34.668,28.320,37.598,19.043,-55.664
1637884416.231,40.039,30.273,29.785,22.949,22.461
1637884416.235,42.480,31.738,29.785,26.367,35.156
1637884416.239,33.691,32.715,32.227,28.320,17.578
1637884416.243,33.691,34.180,34.668,28.809,31.250
1637884416.247,38.574,32.227,30.762,25.391,59.082
1637884416.250,40.527,32.715,30.762,28.320,85.938
1637884416.254,38.086,32.715,31.738,21.973,18.066
1637884416.258,30.273,29.785,27.832,14.648,-2.441
1637884416.262,33.203,32.227,27.344,21.973,23.926
1637884416.266,41.016,30.762,26.855,32.715,50.781
1637884416.278,36.621,28.320,31.250,29.785,20.508
1637884416.282,33.691,31.250,31.250,17.578,-20.996
1637884416.286,37.598,34.180,27.832,17.578,-28.320
1637884416.290,35.645,32.715,26.367,26.855,39.551
1637884416.294,28.809,29.297,27.344,27.344,33.691
1637884416.298,26.367,27.832,31.250,26.367,-41.016
1637884416.302,26.855,30.762,32.715,25.879,1.953
1637884416.305,26.855,32.715,30.762,23.438,70.801
1637884416.309,20.996,28.320,30.273,23.926,83.496
1637884416.313,17.090,27.344,32.227,24.902,36.133
1637884416.317,20.020,31.250,33.203,21.484,-21.484
1637884416.321,27.832,33.203,31.250,20.020,-8.301
1637884416.316,28.809,32.227,29.297,20.020,62.988
1637884416.320,22.949,33.203,24.414,14.648,35.156
1637884416.324,21.973,34.668,27.344,16.113,-26.367
1637884416.328,22.949,31.250,31.250,18.066,-9.277
1637884416.332,23.438,28.320,30.762,20.020,57.617
1637884416.336,24.902,27.832,33.691,24.902,62.500
1637884416.340,26.855,27.832,35.156,20.020,-10.742
1637884416.343,27.344,28.320,35.156,20.020,-27.344
1637884416.347,31.250,29.297,33.691,24.902,99.121
1637884416.351,30.273,31.250,35.645,23.926,89.844
1637884416.355,28.809,35.156,36.133,25.391,-14.160
1637884416.359,25.879,32.227,31.250,19.531,-29.297
1637884416.372,29.785,33.691,26.367,23.438,32.715
1637884416.376,30.273,33.203,20.508,21.973,77.148
1637884416.380,21.484,28.809,27.832,13.672,4.395
1637884416.384,23.926,29.785,29.297,20.996,-67.383
1637884416.388,31.250,31.250,29.785,24.414,8.789
1637884416.392,23.926,33.203,26.855,21.973,83.008
1637884416.396,22.461,34.668,26.855,13.672,41.016
1637884416.399,29.297,37.598,32.227,8.301,30.762
1637884416.403,27.344,37.109,28.809,12.207,0.977
1637884416.407,31.738,31.738,26.367,20.996,99.121
1637884416.411,32.715,30.273,24.414,18.066,68.848
1637884416.415,28.809,33.691,23.438,7.324,-27.344
1637884416.411,35.156,37.109,22.949,23.438,-3.906
1637884416.415,42.480,34.180,21.484,37.109,36.133
1637884416.419,30.273,27.344,26.855,17.578,98.145
1637884416.423,20.020,25.391,32.227,2.930,15.625
1637884416.427,25.879,28.809,31.250,6.836,-32.227
1637884416.431,32.715,31.250,29.785,17.578,17.578
1637884416.435,31.738,32.227,34.668,30.273,77.148
1637884416.438,28.809,31.250,34.668,22.461,49.316
1637884416.442,28.320,29.297,30.762,14.648,-9.277
1637884416.446,32.227,29.785,28.320,22.461,35.645
1637884416.450,34.180,33.203,26.855,26.367,102.051
1637884416.454,29.297,35.156,29.297,22.949,58.594
1637884416.467,26.367,32.227,27.832,21.484,-5.371
1637884416.471,22.949,26.855,29.785,17.578,-14.648
1637884416.475,26.855,27.344,35.156,21.484,47.852
1637884416.479,25.391,26.855,28.320,19.043,50.781
1637884416.483,21.484,28.320,26.367,9.766,11.719
1637884416.487,27.832,30.762,36.621,16.113,58.105
1637884416.491,25.391,28.809,37.598,19.043,113.281
1637884416.494,22.461,29.297,33.691,18.066,44.434
1637884416.498,22.461,28.320,34.668,17.578,34.668
1637884416.502,18.555,28.320,34.668,16.602,60.059
1637884416.506,17.578,25.391,34.668,22.461,69.824
1637884416.510,21.973,22.949,34.668,22.461,44.434
1637884416.504,17.090,25.879,33.203,20.996,-5.859
1637884416.508,17.578,28.320,34.180,20.508,1.465
1637884416.512,24.414,27.344,30.273,20.996,36.133
1637884416.516,31.250,28.320,26.367,24.902,75.195
1637884416.520,29.785,28.809,31.738,23.926,11.230
1637884416.524,23.926,27.344,34.668,21.484,-13.184
1637884416.528,23.926,29.297,36.133,23.438,-0.488
1637884416.531,29.297,31.738,33.203,28.320,34.180
1637884416.535,33.691,35.156,37.598,25.879,49.805
1637884416.539,28.809,34.668,36.133,20.996,-31.738
1637884416.543,20.020,29.297,27.832,20.020,-50.781
1637884416.547,23.926,26.855,31.738,27.344,41.504
1637884416.560,26.855,27.832,29.785,27.344,84.961
1637884416.564,22.461,30.762,22.949,18.066,20.020
1637884416.568,26.855,31.738,18.066,17.090,-45.410
1637884416.572,36.621,32.715,22.949,20.508,30.273
1637884416.576,36.621,34.180,29.297,21.484,86.426
1637884416.580,31.738,32.227,29.297,22.949,33.691
1637884416.584,29.785,33.203,31.738,20.508,8.301
1637884416.587,25.879,33.203,32.227,21.973,27.832
1637884416.591,27.832,33.691,27.832,29.297,97.168
1637884416.595,29.297,34.668,29.297,28.320,35.156
1637884416.599,28.320,37.598,28.320,24.902,-4.883
1637884416.603,29.785,39.062,26.855,21.973,9.277
1637884416.597,25.879,35.156,26.855,25.879,63.965
1637884416.601,20.508,33.203,26.855,24.414,76.172
1637884416.605,21.973,32.227,24.414,19.043,16.602
1637884416.609,24.414,33.691,24.414,19.043,-36.621
1637884416.613,27.832,33.691,29.297,23.438,12.207
1637884416.617,33.691,35.156,29.785,27.832,67.383
1637884416.621,28.809,38.086,29.297,22.949,16.602
1637884416.624,22.461,39.062,24.902,15.137,24.902
1637884416.628,32.227,41.016,24.902,17.578,30.762
1637884416.632,37.109,39.551,23.926,22.461,65.918
1637884416.636,27.832,33.691,22.461,20.020,40.039
1637884416.640,24.902,34.668,26.855,19.531,-17.578
1637884416.654,30.762,38.086,28.809,26.367,4.395
1637884416.658,32.227,30.762,24.414,25.879,63.477
1637884416.662,27.344,29.785,24.414,20.996,25.879
1637884416.666,25.391,32.715,23.438,20.996,6.348
1637884416.670,23.438,33.691,22.949,18.066,25.391
1637884416.674,24.414,32.227,27.344,16.602,32.715
1637884416.678,26.855,30.762,25.391,20.508,68.359
1637884416.681,20.996,31.738,27.832,18.555,20.020
1637884416.685,20.508,31.250,33.691,14.160,-17.578
1637884416.689,28.320,29.785,34.180,19.531,19.043
1637884416.693,25.879,29.785,31.738,20.020,41.992
1637884416.697,22.461,29.297,30.273,18.066,39.062
1637884416.710,28.809,26.855,30.762,20.508,64.453
1637884416.714,26.855,28.320,28.320,19.531,38.574
1637884416.718,31.250,33.691,29.297,18.555,33.691
1637884416.722,34.668,34.668,32.715,17.578,-4.883
1637884416.726,27.832,28.809,30.762,16.602,-32.715
1637884416.730,30.273,29.785,27.832,23.438,-6.836
1637884416.734,33.691,31.738,27.832,31.738,27.344
1637884416.737,24.902,27.832,26.367,24.414,30.273
1637884416.741,22.949,28.320,27.832,12.207,14.648
1637884416.745,23.438,32.227,30.762,10.742,-33.203
1637884416.749,23.926,34.668,32.715,22.461,8.301
1637884416.753,25.879,33.691,27.832,27.832,79.590
1637884416.747,30.273,31.738,28.809,27.832,13.672
1637884416.751,30.762,32.715,34.668,27.832,-72.266
1637884416.755,29.297,35.645,30.273,30.762,17.090
1637884416.759,32.715,35.645,32.715,40.039,85.449
1637884416.763,31.738,34.668,32.715,34.668,-7.812
1637884416.767,27.344,32.715,25.391,22.461,-37.598
1637884416.771,26.855,33.691,25.391,22.949,19.531
1637884416.774,30.273,35.645,27.832,24.902,88.867
1637884416.778,32.227,35.645,25.879,20.020,40.527
1637884416.782,31.250,36.133,19.043,23.438,14.648
1637884416.786,31.738,38.086,25.879,26.855,-21.484
1637884416.790,33.691,36.133,27.832,24.414,37.598
1637884416.785,26.367,33.203,27.344,23.438,59.082
1637884416.789,19.043,33.691,30.762,25.391,-28.320
1637884416.793,22.949,33.203,27.344,27.832,-15.137
1637884416.797,27.344,29.785,29.297,29.297,38.574
1637884416.801,31.250,33.203,33.691,33.203,72.754
1637884416.805,33.691,35.645,33.691,34.180,41.992
1637884416.809,31.250,33.203,27.832,27.832,8.301
1637884416.812,33.203,35.156,25.879,28.809,27.344
1637884416.816,34.180,32.715,24.902,27.832,84.473
1637884416.820,34.180,32.227,30.762,26.367,61.035
1637884416.824,33.203,33.691,32.715,33.691,-6.836
1637884416.828,29.785,33.203,25.879,39.062,-25.879
1637884416.841,27.344,30.762,25.879,41.504,51.270
1637884416.845,22.949,29.297,26.367,33.203,37.109
1637884416.849,26.367,30.762,26.367,23.926,25.391
1637884416.853,27.344,30.762,31.250,22.461,41.016
1637884416.857,25.391,28.809,31.738,26.367,88.379
1637884416.861,28.320,31.738,30.762,29.297,134.766
1637884416.865,25.879,35.645,31.250,23.926,40.039
1637884416.868,22.461,32.227,26.855,23.926,-56.152
1637884416.872,28.320,33.691,25.879,32.715,9.766
1637884416.876,29.785,34.668,28.809,30.762,89.355
1637884416.880,25.879,33.691,26.367,19.531,44.434
1637884416.884,21.484,31.738,23.926,12.695,6.836
1637884416.881,27.832,30.762,24.902,15.625,-6.348
1637884416.885,32.715,35.645,26.855,21.973,42.969
1637884416.889,24.902,33.691,31.250,20.996,51.270
1637884416.893,22.461,29.785,32.715,18.555,29.785
1637884416.897,22.949,31.738,29.785,18.555,29.785
1637884416.901,23.438,28.809,30.762,23.926,83.984
1637884416.905,22.949,29.297,36.133,17.578,32.227
1637884416.908,20.508,31.250,33.203,8.301,0.000
1637884416.912,15.625,27.344,29.785,13.672,15.625
1637884416.916,15.137,29.297,28.809,12.695,50.293
1637884416.920,13.672,30.762,26.367,10.254,100.586
1637884416.924,16.113,29.785,31.738,15.625,43.945
1637884416.936,19.043,29.785,29.297,19.531,-12.695
1637884416.940,20.020,32.715,28.320,21.973,9.277
1637884416.944,22.461,32.227,30.273,22.461,55.176
1637884416.948,18.066,27.832,34.180,19.043,-10.254
1637884416.952,19.043,26.367,35.645,18.066,-55.176
1637884416.956,23.926,25.879,34.668,17.578,52.246
1637884416.960,21.484,25.879,35.645,17.578,93.750
1637884416.963,20.020,27.832,35.156,20.020,20.508
1637884416.967,16.602,29.297,28.320,14.648,-23.926
1637884416.971,19.043,29.297,22.949,15.137,-16.602
1637884416.975,28.809,30.273,31.738,23.438,62.012
1637884416.979,20.020,31.250,33.691,11.230,38.574
1637884416.972,17.578,31.738,24.902,7.812,-9.277
1637884416.976,20.020,29.297,31.250,11.719,-2.930
1637884416.980,24.414,28.809,31.738,16.602,22.461
1637884416.984,30.273,29.785,25.391,18.066,56.641
1637884416.988,30.273,32.715,26.855,15.137,20.996
1637884416.992,29.297,30.762,23.926,13.672,-22.949
1637884416.996,34.668,28.320,27.344,17.578,29.785
1637884416.999,35.645,33.691,27.344,26.367,81.543
1637884417.003,28.809,34.668,23.926,22.949,52.734
1637884417.007,25.879,35.156,27.832,19.043,-44.434
1637884417.011,24.414,35.645,26.855,21.484,-38.574
1637884417.015,26.855,39.551,27.832,28.809,41.504
1637884417.029,29.297,40.039,27.344,31.250,54.199
1637884417.033,19.043,34.668,25.391,20.508,-4.395
1637884417.037,18.066,33.691,26.855,21.484,-44.922
1637884417.041,27.832,32.227,23.926,29.785,17.578
1637884417.045,26.855,33.691,24.414,29.785,51.758
1637884417.049,28.809,35.645,26.855,29.785,24.414
1637884417.053,28.809,33.691,23.438,25.879,-15.625
1637884417.056,28.320,32.227,22.949,24.902,11.719
1637884417.060,33.691,32.227,27.344,32.715,12.695
1637884417.064,31.250,33.691,30.762,28.809,-11.719
1637884417.068,26.855,33.203,29.297,20.996,21.484
1637884417.072,31.738,33.691,31.250,27.344,73.730
1637884417.066,32.227,31.250,30.273,28.809,78.125
1637884417.070,26.855,32.715,30.273,28.809,15.137
1637884417.074,27.344,34.180,34.668,29.297,-37.598
1637884417.078,29.297,29.785,26.367,20.996,9.766
1637884417.082,34.180,30.762,20.508,28.320,102.051
1637884417.086,32.227,32.227,29.297,33.203,47.852
1637884417.090,30.273,33.203,33.691,27.344,-48.828
1637884417.093,29.297,34.668,34.180,22.461,-35.156
1637884417.097,33.203,35.645,33.691,26.855,42.969
1637884417.101,35.645,35.156,32.227,26.367,59.570
1637884417.105,27.832,30.762,34.668,22.461,55.664
1637884417.109,28.320,29.785,33.691,24.414,30.762
1637884417.122,33.691,33.203,33.691,31.738,48.340
1637884417.126,34.180,30.762,36.133,36.621,71.777
1637884417.130,28.320,28.320,32.227,30.273,-9.766
1637884417.134,21.973,29.297,34.668,28.809,-21.973
1637884417.138,31.738,34.180,39.062,34.180,49.805
1637884417.142,36.133,34.668,33.691,38.574,76.172
1637884417.146,30.762,27.344,31.738,39.062,10.742
1637884417.149,29.297,29.297,35.156,30.273,-38.574
1637884417.153,22.949,31.250,34.180,16.113,40.527
1637884417.157,19.043,27.344,32.227,17.090,112.305
1637884417.161,11.230,26.367,31.250,15.625,81.543
1637884417.165,3.418,22.949,31.250,5.371,28.320
1637884417.161,3.906,24.414,31.250,5.859,44.922
1637884417.165,13.672,28.320,32.227,17.090,62.012
1637884417.169,18.555,28.320,32.715,23.926,65.430
1637884417.173,14.648,27.832,33.691,14.160,34.668
1637884417.177,17.578,26.855,35.156,13.672,-27.344
1637884417.181,18.555,29.297,33.691,20.508,-25.879
1637884417.185,15.625,33.691,31.250,23.926,36.621
1637884417.188,18.066,36.621,30.273,25.391,9.766
1637884417.192,19.043,32.715,29.785,9.766,-93.750
1637884417.196,20.508,29.785,28.320,8.301,-25.879
1637884417.200,23.926,29.785,27.344,18.555,56.152
1637884417.204,21.973,29.297,27.832,15.137,63.477
1637884417.216,19.531,29.785,30.762,14.160,26.367
1637884417.220,20.508,30.273,26.855,18.066,-28.809
1637884417.224,24.902,28.809,26.855,27.344,52.246
1637884417.228,22.461,28.809,28.809,22.949,36.621
1637884417.232,16.113,30.762,27.344,15.625,-57.617
1637884417.236,13.672,28.320,32.227,18.066,-23.438
1637884417.240,20.020,24.902,30.762,17.578,56.152
1637884417.243,21.484,25.879,29.785,16.602,58.594
1637884417.247,21.973,27.832,29.785,14.160,27.344
1637884417.251,29.297,28.809,29.297,17.578,58.594
1637884417.255,29.785,30.762,31.250,23.926,56.641
1637884417.259,24.902,28.320,32.227,20.020,75.684
1637884417.254,29.297,31.738,34.180,19.043,90.820
1637884417.258,31.250,29.297,31.250,25.879,20.508
1637884417.262,25.391,23.438,33.691,24.902,-8.301
1637884417.266,28.320,25.879,34.180,28.320,51.758
1637884417.270,28.809,25.879,29.297,30.273,28.320
1637884417.274,24.902,26.367,30.273,20.020,-18.066
1637884417.278,29.297,29.785,31.738,21.973,-28.809
1637884417.281,33.203,29.297,37.109,30.762,21.484
1637884417.285,24.902,26.367,36.621,15.625,7.324
1637884417.289,27.832,30.273,32.227,7.812,-73.242
1637884417.293,33.691,32.227,35.645,15.625,-17.090
1637884417.297,32.227,34.180,32.715,19.043,91.309
1637884417.310,31.738,34.180,27.344,20.996,90.820
1637884417.314,24.414,31.738,29.297,13.184,35.156
1637884417.318,20.996,32.227,27.832,10.254,26.367
1637884417.322,22.949,31.738,27.344,20.508,45.410
1637884417.326,23.438,34.180,27.832,21.484,92.285
1637884417.330,21.973,34.668,24.902,15.137,34.668
1637884417.334,11.230,28.320,25.391,4.395,-59.570
1637884417.337,9.277,22.461,27.832,3.418,4.395
1637884417.341,17.578,25.879,27.832,14.648,120.605
1637884417.345,21.973,30.762,26.855,12.695,24.414
1637884417.349,19.531,26.855,27.344,9.277,-50.293
1637884417.353,15.625,30.762,27.832,14.648,-26.855
1637884417.348,20.508,35.645,27.832,20.020,49.316
1637884417.352,24.902,30.273,32.715,23.438,48.340
1637884417.356,26.855,27.832,29.297,19.043,20.508
1637884417.360,24.414,29.297,24.902,8.301,51.270
1637884417.364,24.902,30.762,24.902,11.719,21.484
1637884417.368,30.273,33.691,22.461,23.438,43.457
1637884417.372,23.438,29.785,23.926,19.043,33.203
1637884417.375,20.020,26.855,30.273,15.137,1.953
1637884417.379,28.809,30.273,30.762,19.043,-38.086
1637884417.383,27.832,28.320,31.250,20.508,31.250
1637884417.387,21.484,26.855,32.227,22.461,72.266
1637884417.391,19.043,28.320,30.762,19.531,32.227
1637884417.404,23.926,26.367,30.273,22.949,4.883
1637884417.408,31.738,26.367,29.785,33.203,38.574
1637884417.412,29.297,26.855,28.809,31.738,20.508
1637884417.416,23.438,24.902,31.250,27.344,-16.602
1637884417.420,25.391,26.367,34.668,28.809,-5.371
1637884417.424,33.203,27.832,38.086,33.691,48.828
1637884417.428,36.133,28.320,36.621,33.203,58.594
1637884417.431,33.691,28.809,37.598,24.414,-31.738
1637884417.435,33.691,29.297,38.574,16.113,-80.078
1637884417.439,39.062,34.668,33.203,17.578,12.207
1637884417.443,34.668,34.668,31.738,15.625,112.793
1637884417.447,33.691,36.133,33.203,18.066,90.332
1637884417.441,33.691,33.691,36.133,22.949,-1.465
1637884417.445,23.926,27.832,38.086,20.996,-64.941
1637884417.449,25.391,31.250,35.645,26.367,62.012
1637884417.453,24.902,28.809,33.691,19.043,107.910
1637884417.457,25.879,28.809,35.156,20.508,26.367
1637884417.461,34.668,31.738,35.156,31.250,-51.758
1637884417.465,37.598,34.668,32.227,30.762,22.461
1637884417.468,33.691,35.645,32.227,31.250,79.102
1637884417.472,26.367,31.250,33.691,21.484,2.441
1637884417.476,25.879,35.156,30.762,17.578,12.695
1637884417.480,29.297,39.062,29.297,30.762,42.480
1637884417.484,30.273,37.109,32.715,31.738,71.289
1637884417.497,32.227,38.086,32.715,24.902,63.965
1637884417.501,36.621,39.062,32.715,26.367,-13.672
1637884417.505,35.645,37.109,35.156,29.297,17.578
1637884417.509,36.133,39.062,35.156,33.203,65.430
1637884417.513,34.668,40.527,34.668,30.273,-16.113
1637884417.517,28.809,34.668,30.762,25.391,-30.273
1637884417.521,26.367,35.645,32.715,24.414,-2.441
1637884417.524,30.273,39.062,31.250,27.344,47.363
1637884417.528,31.738,36.133,28.320,25.391,31.250
1637884417.532,23.438,34.180,28.320,16.113,18.555
1637884417.536,24.414,32.715,26.855,16.602,42.969
1637884417.540,30.762,33.691,26.367,20.996,66.406
1637884417.535,32.227,32.715,30.273,19.043,69.336
1637884417.539,29.297,31.738,28.320,13.184,-3.418
1637884417.543,32.227,35.645,28.320,12.695,-38.574
1637884417.547,39.551,36.133,30.762,22.949,61.035
1637884417.551,32.227,35.645,29.297,24.902,112.305
1637884417.555,24.902,32.715,26.367,26.367,-33.691
1637884417.559,24.902,32.715,26.855,27.344,-54.688
1637884417.562,30.273,34.668,27.832,23.926,61.035
1637884417.566,32.227,35.156,26.855,18.555,97.656
1637884417.570,29.297,33.203,34.668,16.113,44.434
1637884417.574,26.855,29.785,35.156,18.066,-2.441
1637884417.578,25.391,30.273,32.715,18.555,-13.184
1637884417.591,22.949,32.715,30.762,18.555,63.965
1637884417.595,21.973,32.227,27.344,10.742,61.523
1637884417.599,22.461,33.691,31.250,11.719,-6.348
1637884417.603,21.973,36.133,32.715,21.484,-7.324
1637884417.607,25.391,32.227,28.320,20.508,46.387
1637884417.611,18.066,26.855,26.855,16.602,113.281
1637884417.615,5.371,27.344,29.297,6.348,72.754
1637884417.618,10.254,28.320,26.367,5.371,-19.531
1637884417.622,20.508,28.809,23.438,18.555,9.766
1637884417.626,24.414,29.297,28.320,19.043,85.449
1637884417.630,18.066,31.738,29.785,8.789,37.109
1637884417.634,12.207,29.785,29.297,5.371,-38.086
1637884417.629,14.160,24.902,29.785,14.648,-0.488
1637884417.633,15.625,26.367,31.250,14.160,85.449
1637884417.637,18.555,26.367,30.273,5.371,46.387
1637884417.641,19.531,28.809,24.414,10.254,-26.367
1637884417.645,20.996,29.297,26.855,17.090,-10.742
1637884417.649,25.391,27.344,30.762,18.555,66.406
1637884417.653,18.555,25.879,29.297,15.625,44.922
1637884417.656,15.137,23.926,25.879,15.137,-24.414
1637884417.660,22.461,26.367,26.855,13.184,-14.648
1637884417.664,29.785,30.762,29.785,22.949,53.223
1637884417.668,29.785,28.809,25.391,33.203,73.730
1637884417.672,24.902,24.902,25.391,31.250,20.020
1637884417.685,26.367,26.367,30.273,29.785,-24.414
1637884417.689,27.344,25.879,30.273,31.250,17.578
1637884417.693,27.344,26.855,28.320,34.180,93.750
1637884417.697,33.691,29.785,28.809,34.180,47.363
1637884417.701,31.250,26.855,29.297,30.273,-35.156
1637884417.705,35.645,27.344,31.738,31.738,-46.875
1637884417.709,37.598,29.785,36.621,29.785,52.734
1637884417.712,34.180,26.855,35.645,21.484,70.801
1637884417.716,28.809,26.855,35.645,20.996,33.203
1637884417.720,25.879,30.273,37.598,25.879,-14.648
1637884417.724,33.203,28.809,36.133,28.320,46.387
1637884417.728,23.926,25.879,32.227,20.508,80.566
1637884417.722,17.578,28.320,34.180,19.531,28.320
1637884417.726,23.926,29.785,34.668,20.020,-19.043
1637884417.730,24.414,26.367,33.203,13.672,35.156
1637884417.734,24.902,24.902,28.809,13.184,91.797
1637884417.738,24.902,27.344,22.461,9.766,7.324
1637884417.742,22.461,29.297,27.344,6.836,-36.621
1637884417.746,25.391,31.250,32.715,14.648,2.441
1637884417.749,29.297,30.273,29.785,20.020,81.543
1637884417.753,25.879,28.809,27.832,5.859,62.988
1637884417.757,25.879,30.762,28.320,2.930,-18.066
1637884417.761,32.715,32.715,25.391,15.625,-4.883
1637884417.765,24.902,30.762,24.902,17.578,38.086
1637884417.778,15.137,30.273,29.297,16.602,7.324
1637884417.782,21.973,29.297,30.273,14.160,-38.574
1637884417.786,29.785,29.297,29.297,15.137,-28.320
1637884417.790,34.668,32.227,30.273,20.996,61.523
1637884417.794,37.109,31.738,27.832,25.879,37.109
1637884417.798,37.598,33.203,26.367,24.902,-15.137
1637884417.802,35.156,33.691,24.414,14.160,19.043
1637884417.805,37.109,32.227,22.461,17.578,117.676
1637884417.809,31.738,28.809,28.809,25.391,112.305
1637884417.813,26.855,29.785,33.691,19.043,0.000
1637884417.817,27.832,36.133,28.320,10.742,-32.227
1637884417.821,30.273,33.203,26.855,14.160,24.414
1637884417.816,29.297,26.855,30.273,26.367,82.031
1637884417.820,23.438,27.344,27.344,26.855,26.367
1637884417.824,24.414,24.902,22.949,22.949,-17.578
1637884417.828,23.926,21.973,25.391,22.949,17.090
1637884417.832,23.926,23.926,24.414,24.414,88.867
1637884417.836,23.438,28.320,27.344,22.461,125.488
1637884417.840,18.555,29.297,30.762,14.648,43.457
1637884417.843,18.066,25.879,29.297,15.625,3.906
1637884417.847,26.367,24.414,26.367,21.484,76.660
1637884417.851,27.832,28.320,20.996,15.625,48.340
1637884417.855,28.320,28.320,30.762,21.484,20.508
1637884417.859,28.320,28.320,38.086,25.391,12.207
1637884417.872,29.297,29.297,36.621,20.020,43.457
1637884417.876,24.902,28.809,30.762,20.020,53.711
1637884417.880,18.555,27.832,30.273,25.879,-12.207
1637884417.884,21.484,31.250,28.809,21.484,-3.906
1637884417.888,25.879,35.156,25.391,20.996,36.621
1637884417.892,29.785,33.203,30.762,24.902,80.566
1637884417.896,25.879,30.762,33.203,11.719,46.875
1637884417.899,21.484,30.762,30.762,9.766,-24.414
1637884417.903,20.508,29.785,28.809,21.484,-18.555
1637884417.907,27.344,28.320,26.855,27.344,73.730
1637884417.911,34.668,31.738,29.297,22.461,64.941
1637884417.915,29.785,29.297,33.691,12.695,-57.617
1637884417.910,29.785,25.391,30.273,12.695,-14.648
1637884417.914,31.738,25.391,25.391,21.973,58.594
1637884417.918,31.250,27.344,27.832,28.320,49.316
1637884417.922,26.855,30.273,32.227,23.926,24.414
1637884417.926,23.438,31.250,32.227,13.672,2.441
1637884417.930,27.344,26.367,29.785,16.113,-6.348
1637884417.934,32.227,31.250,32.227,18.555,47.363
1637884417.937,28.320,32.715,30.273,15.137,21.484
1637884417.941,27.344,30.273,28.809,12.207,-16.602
1637884417.945,26.855,30.762,31.738,15.137,14.648
1637884417.949,26.367,32.227,29.297,21.973,86.914
1637884417.953,25.879,31.250,24.414,13.672,24.902
1637884417.966,23.926,31.250,31.250,6.836,-67.871
1637884417.970,23.438,32.715,32.227,16.602,-49.316
1637884417.974,22.461,28.320,22.461,23.926,68.359
1637884417.978,20.508,28.809,24.902,20.996,86.914
1637884417.982,19.043,31.738,29.785,10.254,-23.438
1637884417.986,17.578,26.855,31.250,8.789,-16.113
1637884417.990,20.020,22.949,33.691,17.090,41.016
1637884417.993,28.320,26.855,34.668,18.066,39.062
1637884417.997,24.414,27.344,33.203,12.207,10.254
1637884418.001,23.438,23.926,30.273,12.695,-33.203
1637884418.005,29.785,25.391,30.273,22.461,-12.695
1637884418.009,28.809,27.832,32.715,22.461,86.426
1637884418.004,24.414,23.926,29.297,21.484,23.926
1637884418.008,25.879,27.832,27.832,21.973,0.000
1637884418.012,30.273,32.715,30.762,21.973,91.797
1637884418.016,34.180,29.785,32.715,25.879,96.191
1637884418.020,31.738,29.297,32.227,22.461,76.660
1637884418.024,26.855,27.344,29.297,19.043,-11.230
1637884418.028,25.879,27.832,27.832,19.531,-6.836
1637884418.031,27.832,29.297,28.320,25.879,59.570
1637884418.035,32.715,27.344,30.273,28.320,72.754
1637884418.039,30.762,28.320,34.668,20.508,18.066
1637884418.043,26.855,31.250,34.668,13.184,-62.500
1637884418.047,30.273,32.715,30.273,20.508,0.000
1637884418.060,30.762,31.250,27.344,25.879,85.449
1637884418.064,24.414,32.227,26.855,17.090,50.781
1637884418.068,21.484,31.250,30.762,19.531,-11.230
1637884418.072,29.297,28.809,31.738,28.809,29.297
1637884418.076,30.762,27.832,29.785,28.809,69.336
1637884418.080,21.973,24.902,35.645,34.668,55.176
1637884418.084,20.508,26.367,37.598,30.762,39.551
1637884418.087,17.578,24.902,36.621,30.762,44.434
1637884418.091,20.020,26.855,34.668,36.133,80.566
1637884418.095,21.973,32.715,36.133,25.879,57.129
1637884418.099,20.996,28.809,30.762,21.973,-2.930
1637884418.103,25.879,25.391,26.855,27.344,-45.410
1637884418.098,27.344,27.344,26.855,27.344,14.160
1637884418.102,20.996,25.879,26.367,21.484,78.613
1637884418.106,16.113,23.438,30.762,17.578,54.688
1637884418.110,18.066,25.879,33.203,14.648,-15.137
1637884418.114,23.926,31.738,34.180,22.461,28.320
1637884418.118,30.273,35.156,37.109,31.250,82.031
1637884418.122,32.227,35.156,36.621,27.344,-3.418
1637884418.125,33.203,33.691,32.227,21.973,2.441
1637884418.129,36.621,33.691,34.668,31.250,22.949
1637884418.133,38.086,33.203,30.762,37.109,52.734
1637884418.137,31.250,29.785,29.785,26.367,67.383
1637884418.141,28.809,29.297,31.250,25.391,41.992
1637884418.154,29.785,30.273,30.273,38.574,21.484
1637884418.158,29.785,28.320,34.180,40.527,54.199
1637884418.162,20.508,29.785,32.715,28.809,26.367
1637884418.166,15.137,29.785,28.320,15.137,-15.625
1637884418.170,24.414,31.738,27.344,11.230,15.625
1637884418.174,26.367,35.645,22.461,14.160,75.195
1637884418.178,16.113,32.227,19.043,5.371,70.801
1637884418.181,10.254,28.809,24.902,3.418,-37.598
1637884418.185,13.672,29.297,29.785,8.789,-79.102
1637884418.189,20.996,31.250,27.344,17.578,14.160
1637884418.193,25.879,30.762,21.484,24.414,74.219
1637884418.197,26.855,29.297,21.973,18.555,-22.461
1637884418.191,27.344,29.785,26.367,21.484,-28.320
1637884418.195,30.273,29.785,27.344,32.227,58.594
1637884418.199,33.691,28.320,25.391,34.668,110.840
1637884418.203,28.809,28.809,20.020,22.461,64.941
1637884418.207,27.344,29.297,21.973,18.066,18.555
1637884418.211,34.668,28.809,29.785,23.926,11.230
1637884418.215,34.180,28.809,29.297,22.461,44.922
1637884418.218,28.809,25.879,30.762,18.066,61.035
1637884418.222,22.949,26.367,29.297,20.508,28.320
1637884418.226,21.484,29.785,31.250,16.602,-5.859
1637884418.230,28.809,30.762,31.738,20.508,54.199
1637884418.234,29.297,28.809,23.438,23.926,42.969
1637884418.247,21.973,28.320,24.902,13.672,-2.930
1637884418.251,20.508,29.297,29.297,7.812,33.203
1637884418.255,23.438,27.344,31.738,9.766,27.344
1637884418.259,25.391,27.832,32.715,18.066,37.109
1637884418.263,21.973,28.809,28.320,16.113,-12.207
1637884418.267,20.508,27.832,27.832,17.578,-34.668
1637884418.271,21.484,26.855,27.832,15.625,7.812
1637884418.274,24.414,27.344,26.367,12.695,82.520
1637884418.278,27.344,28.320,22.949,13.672,66.895
1637884418.282,20.996,24.414,23.926,12.207,3.906
1637884418.286,23.926,29.297,28.809,18.066,-1.953
1637884418.290,30.273,34.668,25.879,20.020,45.898
1637884418.285,29.785,30.762,23.926,20.996,78.613
1637884418.289,27.832,30.762,22.949,14.648,10.742
1637884418.293,29.297,35.156,24.902,10.742,-13.184
1637884418.297,31.250,34.180,25.879,15.137,47.363
1637884418.301,32.227,31.250,20.508,13.184,58.105
1637884418.305,32.227,33.203,22.461,10.254,11.230
1637884418.309,31.738,34.180,26.855,13.672,33.203
1637884418.312,29.785,35.156,30.273,17.578,47.363
1637884418.316,29.297,32.227,30.273,22.461,59.082
1637884418.320,27.344,29.297,26.855,21.484,14.648
1637884418.324,21.973,31.738,27.832,19.043,-16.602
1637884418.328,16.113,28.809,30.273,24.414,15.625
1637884418.341,20.996,26.367,37.598,35.156,65.918
1637884418.345,22.461,28.809,37.109,30.273,12.695
1637884418.349,14.648,25.391,29.297,17.090,-77.148
1637884418.353,20.508,24.902,26.855,15.137,-62.988
1637884418.357,23.926,28.320,25.879,18.555,16.113
1637884418.361,20.020,28.320,23.926,19.531,82.520
1637884418.365,23.438,30.273,23.438,7.812,27.344
1637884418.368,26.855,33.203,25.391,10.254,7.812
1637884418.372,29.297,32.227,26.855,20.508,70.312
1637884418.376,34.180,31.250,28.320,18.555,94.727
1637884418.380,34.668,34.180,26.367,12.695,36.133
1637884418.384,33.203,33.203,28.320,17.090,-45.898
1637884418.378,35.645,29.297,30.762,24.902,-33.691
1637884418.382,39.551,33.203,28.809,29.785,105.957
1637884418.386,34.668,33.203,27.344,29.297,71.777
1637884418.390,33.691,29.785,28.320,25.391,-6.348
1637884418.394,32.715,32.715,26.367,21.973,43.457
1637884418.398,29.785,31.250,24.414,24.414,62.500
1637884418.402,25.879,29.297,25.879,17.090,76.172
1637884418.405,24.414,34.180,27.344,12.695,41.992
1637884418.409,24.414,34.180,29.785,15.625,12.695
1637884418.413,24.414,28.320,27.344,16.602,55.176
1637884418.417,21.484,27.344,25.391,20.508,44.922
1637884418.421,17.090,29.297,25.879,16.602,20.996
1637884418.435,19.531,32.715,24.414,14.648,31.738
1637884418.439,24.414,31.738,24.414,20.508,58.105
1637884418.443,25.879,33.203,26.367,20.508,110.352
1637884418.447,21.973,35.156,26.855,15.137,85.938
1637884418.451,20.996,31.738,23.926,10.742,46.875
1637884418.455,28.809,30.762,22.949,14.160,26.367
1637884418.459,31.250,36.621,28.320,20.020,50.293
1637884418.462,23.926,33.203,33.203,17.090,34.180
1637884418.466,27.832,29.785,32.227,19.043,31.738
1637884418.470,32.227,34.180,29.297,22.461,41.016
1637884418.474,30.762,32.227,26.855,29.785,64.453
1637884418.478,24.414,27.344,28.809,23.438,68.848
1637884418.472,18.066,28.809,33.203,15.625,-8.301
1637884418.476,19.531,31.738,27.832,19.043,-46.875
1637884418.480,26.367,32.227,21.484,24.902,31.250
1637884418.484,24.902,30.762,27.832,24.414,58.594
1637884418.488,15.137,30.273,30.762,12.207,-15.625
1637884418.492,20.508,32.715,33.203,14.648,-39.062
1637884418.496,26.855,35.156,37.598,19.531,19.531
1637884418.499,22.461,32.227,32.227,19.043,69.336
1637884418.503,18.555,28.809,29.297,13.184,17.090
1637884418.507,18.066,28.809,34.180,13.672,-33.691
1637884418.511,21.484,28.320,30.762,23.926,-26.855
1637884418.515,25.879,26.855,24.414,22.949,41.016
1637884418.529,30.273,30.273,28.809,19.043,22.949
1637884418.533,30.273,31.738,28.320,14.160,-3.418
1637884418.537,28.320,31.250,24.414,17.578,-13.184
1637884418.541,32.227,31.738,31.738,26.855,44.434
1637884418.545,28.320,30.273,35.645,25.879,72.754
1637884418.549,19.531,28.809,34.668,20.508,11.719
1637884418.553,20.508,31.738,34.668,21.484,23.926
1637884418.556,23.926,31.738,31.738,26.855,26.367
1637884418.560,19.043,27.344,33.203,28.320,69.824
1637884418.564,15.625,29.297,36.133,27.344,31.250
1637884418.568,19.531,30.273,35.156,19.531,-18.555
1637884418.572,21.973,27.832,33.691,16.602,-28.320
1637884418.567,22.461,29.785,28.320,22.461,57.129
1637884418.571,10.742,29.297,25.879,12.695,27.832
1637884418.575,9.277,25.391,30.762,9.277,-40.039
1637884418.579,16.602,28.320,30.273,18.555,-18.066
1637884418.583,22.949,30.762,26.367,24.902,45.410
1637884418.587,22.461,28.320,28.809,26.855,64.453
1637884418.591,17.090,24.414,29.297,19.043,-1.953
1637884418.594,18.066,26.367,26.367,16.113,-15.625
1637884418.598,23.926,32.227,26.367,24.414,9.766
1637884418.602,26.367,29.785,32.227,27.832,36.133
1637884418.606,21.484,26.367,30.762,20.996,4.883
1637884418.610,25.879,28.809,26.855,20.996,18.555
1637884418.625,33.203,27.344,29.297,28.809,51.270
1637884418.629,32.227,29.297,31.250,27.832,46.387
1637884418.633,24.902,28.320,30.762,20.020,-44.434
1637884418.637,22.949,26.855,30.273,15.137,-48.828
1637884418.641,31.250,30.273,28.320,18.555,9.766
1637884418.645,35.156,32.227,25.879,32.715,41.992
1637884418.649,30.273,27.832,30.762,31.738,60.059
1637884418.652,27.344,29.785,34.668,26.855,-11.719
1637884418.656,30.762,31.738,35.645,28.809,-20.020
1637884418.660,34.180,32.227,35.156,28.320,78.613
1637884418.664,34.180,36.133,28.809,21.484,88.379
1637884418.668,32.715,35.156,28.809,11.719,-0.977
1637884418.660,23.926,27.832,30.273,13.184,6.836
1637884418.664,21.484,30.762,27.344,17.090,97.168
1637884418.668,18.066,33.203,29.297,18.066,74.707
1637884418.672,15.137,29.785,33.203,18.555,48.340
1637884418.676,22.949,33.691,31.738,12.207,27.832
1637884418.680,28.320,34.668,30.762,11.230,53.223
1637884418.684,30.762,33.203,31.250,19.531,81.543
1637884418.687,27.344,32.715,30.762,16.602,13.184
1637884418.691,21.973,32.227,28.809,13.672,-10.742
1637884418.695,21.973,33.691,27.832,15.625,27.344
1637884418.699,21.973,32.715,32.227,14.160,95.703
1637884418.703,20.508,30.762,30.273,6.348,62.012
1637884418.716,18.555,29.297,23.926,4.395,-18.066
1637884418.720,23.438,28.809,31.250,6.348,-20.996
1637884418.724,28.320,29.785,32.227,10.254,62.988
1637884418.728,30.273,32.715,29.785,18.066,100.098
1637884418.732,25.391,34.180,33.691,17.090,33.203
1637884418.736,17.090,30.273,29.297,11.230,59.082
1637884418.740,18.555,26.367,25.391,15.137,47.363
1637884418.743,20.508,27.344,29.297,24.902,36.133
1637884418.747,16.602,29.297,25.879,19.531,-2.441
1637884418.751,18.066,28.320,24.414,6.836,-10.254
1637884418.755,24.414,29.785,28.320,12.695,24.414
1637884418.759,23.926,28.809,30.273,13.672,24.414
1637884418.754,22.461,26.855,30.273,15.137,6.348
1637884418.758,17.578,26.367,29.785,18.555,-18.066
1637884418.762,17.090,25.879,32.227,19.531,-22.461
1637884418.766,22.461,28.809,30.762,23.926,42.480
1637884418.770,23.926,26.855,29.297,21.484,24.414
1637884418.774,21.973,23.926,27.832,19.043,-37.109
1637884418.778,23.926,28.809,29.785,25.879,15.137
1637884418.781,27.344,28.809,30.762,31.738,114.258
1637884418.785,24.414,28.320,30.762,24.902,93.750
1637884418.789,28.320,31.738,32.227,22.461,-23.926
1637884418.793,35.156,34.180,36.133,28.809,-24.902
1637884418.797,36.621,33.691,36.133,33.691,65.918
1637884418.810,32.227,29.297,30.762,32.715,54.199
1637884418.814,29.785,27.344,28.809,17.090,-16.602
1637884418.818,28.809,28.320,27.832,16.113,-20.020
1637884418.822,29.297,28.809,30.762,26.855,39.062
1637884418.826,30.273,29.785,32.715,23.438,68.848
1637884418.830,27.832,31.250,29.785,23.438,-21.973
1637884418.834,27.344,32.227,29.785,20.996,-43.945
1637884418.837,26.367,31.250,27.344,15.137,15.625
1637884418.841,30.273,32.715,28.809,24.902,63.477
1637884418.845,25.879,31.250,34.180,26.367,42.969
1637884418.849,20.508,27.344,31.250,20.020,0.000
1637884418.853,26.367,30.762,34.180,25.879,30.762
1637884418.848,28.320,35.156,34.668,30.762,117.188
1637884418.852,23.438,31.738,28.320,29.297,120.117
1637884418.856,19.043,28.320,30.762,20.996,9.277
1637884418.860,20.996,30.762,34.180,19.043,-37.109
1637884418.864,25.391,29.297,32.227,28.320,9.277
1637884418.868,23.438,27.344,31.738,31.250,53.223
1637884418.872,22.949,32.227,30.273,26.367,23.438
1637884418.875,24.414,32.227,30.273,25.391,0.000
1637884418.879,28.809,30.273,28.320,26.367,13.184
1637884418.883,35.156,33.203,20.996,26.367,49.316
1637884418.887,33.691,34.180,19.043,25.391,86.426
1637884418.891,27.832,30.762,26.367,22.461,37.598
1637884418.903,21.484,27.344,26.367,14.648,10.254
1637884418.907,29.297,32.715,25.391,19.531,49.805
1637884418.911,34.180,37.109,28.320,30.273,45.410
1637884418.915,31.250,33.691,26.855,29.297,3.418
1637884418.919,33.691,32.227,27.832,29.297,-28.320
1637884418.923,35.645,32.715,26.855,32.715,26.855
1637884418.927,35.156,33.691,22.949,25.879,48.340
1637884418.930,24.902,31.738,20.996,20.996,10.254
1637884418.934,21.484,32.227,23.438,21.973,-27.344
1637884418.938,30.762,34.668,26.855,28.320,6.348
1637884418.942,32.227,35.156,28.809,28.320,47.852
1637884418.946,26.855,35.156,27.344,13.184,1.465
1637884418.941,23.438,34.668,28.320,5.859,-34.668
1637884418.945,20.508,33.203,30.762,10.742,13.184
1637884418.949,15.137,30.273,26.367,5.859,100.586
1637884418.953,19.043,31.250,23.926,4.395,80.078
1637884418.957,27.344,36.621,29.785,13.184,-3.906
1637884418.961,27.344,37.598,30.762,10.742,-32.715
1637884418.965,29.785,40.039,29.297,13.184,45.410
1637884418.968,26.367,42.480,37.598,11.719,64.941
1637884418.972,10.742,36.133,37.598,-11.230,1.953
1637884418.976,12.695,33.203,29.297,-10.254,5.371
1637884418.980,13.184,32.227,33.203,-0.488,52.734
1637884418.984,-2.930,26.367,36.621,-16.602,82.520
1637884418.997,-25.391,28.809,43.457,-40.039,41.992
1637884419.001,-58.105,35.156,48.828,-69.336,3.418
1637884419.005,-71.777,33.691,51.270,-88.379,52.734
1637884419.009,-72.754,25.879,58.105,-88.867,92.285
1637884419.013,-88.379,26.367,56.641,-94.238,86.426
1637884419.017,-101.562,31.250,53.711,-108.398,-33.691
1637884419.021,-106.934,31.250,52.734,-116.699,-90.820
1637884419.024,-111.328,35.156,55.176,-115.723,22.461
1637884419.028,-109.375,40.039,60.059,-114.258,42.969
1637884419.032,-99.121,38.574,62.012,-113.770,-25.879
1637884419.036,-94.238,40.527,61.523,-111.328,-39.551
1637884419.040,-86.914,41.016,60.059,-104.980,53.223
1637884419.036,-86.426,41.992,64.941,-104.492,92.773
1637884419.040,-115.723,36.133,70.801,-124.023,34.180
1637884419.044,-118.652,26.855,75.195,-121.094,-9.277
1637884419.048,-95.215,26.855,77.637,-93.262,8.301
1637884419.052,-92.285,26.855,78.613,-83.984,97.168
1637884419.056,-101.074,27.832,74.707,-94.727,46.387
1637884419.060,-109.375,26.367,75.195,-105.469,-24.414
1637884419.063,-102.539,22.949,81.055,-96.680,-1.465
1637884419.067,-83.984,20.508,81.055,-83.984,53.711
1637884419.071,-88.867,23.438,78.613,-91.309,72.266
1637884419.075,-89.355,23.438,76.660,-87.891,35.645
1637884419.079,-77.148,21.973,73.242,-72.754,19.043
1637884419.092,-76.660,22.461,70.312,-72.266,85.938
1637884419.096,-68.848,17.578,71.289,-69.336,58.594
1637884419.100,-53.223,18.066,70.801,-49.316,6.836
1637884419.104,-58.105,23.926,65.430,-51.270,0.000
1637884419.108,-66.895,28.320,61.035,-62.500,38.574
1637884419.112,-68.848,24.902,62.012,-63.477,73.730
1637884419.116,-63.965,20.996,63.477,-60.059,7.324
1637884419.119,-41.992,21.484,58.594,-42.969,-32.227
1637884419.123,-37.598,22.949,53.711,-32.227,0.977
1637884419.127,-52.734,23.926,59.082,-41.992,69.336
1637884419.131,-58.105,22.949,67.383,-43.945,36.133
1637884419.135,-37.109,17.578,59.570,-29.785,-58.105
1637884419.128,-12.207,18.066,49.316,-9.766,-26.367
1637884419.132,-14.648,21.973,51.758,-7.812,78.125
1637884419.136,-32.227,23.926,54.688,-30.273,61.523
1637884419.140,-38.574,26.367,50.293,-43.945,8.789
1637884419.144,-30.762,28.809,49.805,-39.551,13.184
1637884419.148,-18.555,28.320,51.270,-20.020,56.152
1637884419.152,-8.301,23.926,50.293,-5.859,59.082
1637884419.155,-10.254,27.344,47.363,-9.277,44.922
1637884419.159,-17.578,31.250,41.992,-21.484,47.363
1637884419.163,-21.484,27.832,45.410,-27.344,61.035
1637884419.167,-17.578,26.855,48.340,-29.785,72.266
1637884419.171,-8.789,28.809,43.945,-20.020,-23.438
1637884419.185,-6.836,31.738,41.504,-0.977,-58.105
1637884419.189,-18.066,30.273,46.387,-14.648,21.973
1637884419.193,-18.066,27.344,44.922,-20.020,40.039
1637884419.197,-15.625,26.855,47.363,-5.371,20.508
1637884419.201,-22.949,23.438,51.270,2.930,4.883
1637884419.205,-11.230,22.461,47.363,9.766,10.254
1637884419.209,2.441,22.461,47.852,8.301,109.863
1637884419.212,-0.977,27.344,44.434,-3.906,88.379
1637884419.216,-13.184,34.180,41.992,-20.508,18.066
1637884419.220,-21.484,32.227,47.852,-27.832,-9.766
1637884419.224,-15.625,26.367,48.340,-15.137,8.301
1637884419.228,-7.324,24.414,45.410,-4.883,89.355
1637884419.222,-1.465,26.855,41.016,2.441,80.566
1637884419.226,-1.953,27.344,42.480,7.324,18.066
1637884419.230,-3.418,24.414,48.340,0.488,34.180
1637884419.234,0.977,24.414,43.945,1.465,93.262
1637884419.238,5.859,31.250,39.551,6.348,72.266
1637884419.242,13.184,34.668,38.574,9.277,-24.902
1637884419.246,19.043,32.227,36.133,13.672,-24.902
1637884419.249,15.625,32.227,34.668,1.465,73.730
1637884419.253,15.625,36.621,31.738,-6.836,54.199
1637884419.257,27.832,36.133,34.668,9.277,-29.297
1637884419.261,36.621,28.809,32.227,31.250,-23.926
1637884419.265,43.945,31.738,27.344,36.621,39.551
1637884419.278,39.551,36.621,25.879,24.902,9.766
1637884419.282,28.809,36.621,21.973,26.367,-20.996
1637884419.286,31.738,31.250,31.250,37.109,20.020
1637884419.290,47.363,30.762,36.133,43.945,75.195
1637884419.294,55.664,36.133,28.809,53.711,65.918
1637884419.298,50.293,36.621,25.879,48.340,-11.230
1637884419.302,56.152,38.574,26.367,41.992,-34.180
1637884419.305,64.941,37.598,26.367,49.805,28.809
1637884419.309,69.336,36.133,19.043,60.547,58.594
1637884419.313,73.242,39.062,13.672,65.430,-14.160
1637884419.317,74.707,41.016,10.742,67.871,-22.461
1637884419.321,81.543,38.574,4.395,81.055,23.438
1637884419.317,94.238,36.621,5.371,95.215,86.914
1637884419.321,101.074,38.574,8.789,92.773,48.340
1637884419.325,98.633,39.062,4.883,90.820,-16.602
1637884419.329,108.887,39.551,-1.953,102.051,-2.441
1637884419.333,126.465,42.969,-4.883,110.352,39.062
1637884419.337,126.953,41.504,-6.836,110.352,63.965
1637884419.341,129.395,40.527,-6.348,114.258,-12.207
1637884419.344,136.719,43.457,-3.906,122.559,-62.012
1637884419.348,142.578,43.457,-7.324,135.254,10.742
1637884419.352,145.996,44.434,-13.184,135.742,79.102
1637884419.356,141.602,42.480,-14.648,123.535,64.941
1637884419.360,142.578,40.039,-16.113,127.930,24.414
1637884419.372,153.320,44.434,-20.020,144.043,41.992
1637884419.376,151.367,46.387,-18.555,139.160,61.035
1637884419.380,150.391,46.387,-15.137,129.395,-6.836
1637884419.384,151.855,45.410,-16.113,130.859,18.066
1637884419.388,148.438,40.039,-10.742,133.789,67.871
1637884419.392,155.762,42.969,-12.695,137.207,60.547
1637884419.396,150.391,45.898,-15.137,125.488,26.855
1637884419.399,139.160,42.969,-10.254,121.094,-19.531
1637884419.403,142.090,44.434,-9.277,122.070,1.465
1637884419.407,145.020,43.457,-8.301,116.699,38.574
1637884419.411,138.184,40.039,-3.906,113.281,29.785
1637884419.415,131.348,40.039,-0.977,105.957,-26.855
1637884419.410,126.953,41.992,-1.465,101.074,-41.992
1637884419.414,125.000,43.945,-4.883,103.516,25.879
1637884419.418,121.094,41.992,-5.859,103.516,53.711
1637884419.422,117.188,38.574,0.000,96.191,8.789
1637884419.426,106.934,35.156,3.906,88.867,1.953
1637884419.430,102.539,33.203,3.906,90.820,35.645
1637884419.434,100.586,35.645,6.348,91.309,88.379
1637884419.437,88.379,34.180,3.418,76.660,76.172
1637884419.441,79.590,32.227,2.930,63.477,16.113
1637884419.445,79.102,31.738,6.348,62.988,7.812
1637884419.449,77.148,30.762,6.836,69.824,83.008
1637884419.453,69.336,29.297,5.371,65.918,70.801
1637884419.466,66.895,26.855,6.348,57.129,39.062
1637884419.470,67.871,31.250,16.602,55.664,-1.465
1637884419.474,66.406,31.250,18.555,59.570,41.016
1637884419.478,62.012,26.367,15.137,58.105,48.340
1637884419.482,61.035,26.367,17.090,57.129,-2.441
1637884419.486,64.453,26.855,19.043,65.430,18.066
1637884419.490,64.941,26.855,20.508,67.871,60.059
1637884419.493,68.848,31.250,19.531,64.453,92.285
1637884419.497,69.824,32.715,17.090,63.477,52.246
1637884419.501,68.359,29.785,19.043,63.477,8.789
1637884419.505,65.918,30.273,21.484,60.547,-21.484
1637884419.509,65.918,31.250,19.043,59.570,22.461
1637884419.504,61.523,26.367,21.484,57.617,56.152
1637884419.508,58.105,26.367,25.391,54.688,2.441
1637884419.512,65.430,30.273,26.855,59.570,10.742
1637884419.516,67.383,29.297,25.391,65.430,48.340
1637884419.520,60.547,29.297,22.461,62.988,-10.254
1637884419.524,60.059,31.250,21.973,53.711,-24.902
1637884419.528,62.988,30.762,21.973,50.781,8.301
1637884419.531,62.500,30.273,23.438,55.664,50.293
1637884419.535,62.988,29.297,25.391,52.246,77.148
1637884419.539,57.129,32.227,24.902,44.434,17.578
1637884419.543,50.293,32.227,24.902,44.434,2.930
1637884419.547,54.199,25.391,27.832,47.363,39.062
1637884419.561,49.805,22.461,28.809,49.805,72.266
