timestamps,TP9,AF7,AF8,TP10,Right AUX
1644358116.689,26.855,11.719,32.715,30.762,40.039
1644358116.693,36.621,29.297,29.785,38.086,29.297
1644358116.697,24.414,39.062,28.809,24.902,21.484
1644358116.701,15.625,33.203,30.273,17.090,17.578
1644358116.705,20.996,32.227,25.879,26.367,35.156
1644358116.709,30.762,33.691,26.855,31.738,59.570
1644358116.713,29.785,33.203,30.762,29.297,28.320
1644358116.716,12.207,32.227,29.297,21.973,15.625
1644358116.720,16.602,32.227,26.855,22.461,70.312
1644358116.724,33.203,32.715,24.414,30.273,8.301
1644358116.728,29.785,32.715,24.414,30.762,23.438
1644358116.732,11.230,29.785,23.438,20.996,74.707
1644358116.747,11.719,28.320,23.926,20.020,-42.969
1644358116.751,21.484,15.137,23.926,29.297,-6.836
1644358116.755,21.484,13.184,25.391,34.668,17.090
1644358116.759,13.672,33.203,28.320,26.367,-5.859
1644358116.763,7.812,37.109,25.391,20.508,41.016
1644358116.767,21.484,32.227,22.461,26.855,37.109
1644358116.771,29.785,31.738,26.367,28.809,35.645
1644358116.774,23.926,30.762,26.367,26.367,60.059
1644358116.778,19.043,29.297,27.344,21.973,48.828
1644358116.782,33.691,31.738,29.297,27.344,28.320
1644358116.786,53.223,34.180,27.832,35.645,17.090
1644358116.790,46.875,35.156,23.926,29.785,-22.461
1644358116.822,27.832,35.645,22.461,20.508,-31.738
1644358116.826,27.832,27.344,24.902,21.973,12.695
1644358116.830,34.180,21.484,26.367,26.367,38.574
1644358116.834,28.809,29.785,28.809,24.414,37.109
1644358116.838,9.766,28.809,28.320,17.578,37.109
1644358116.842,4.395,28.320,27.832,17.090,38.574
1644358116.846,23.926,23.926,27.344,23.438,27.832
1644358116.849,26.855,20.020,27.832,27.832,34.668
1644358116.853,7.324,34.180,30.273,18.555,25.879
1644358116.857,0.000,35.645,29.785,8.301,14.160
1644358116.861,9.766,28.809,25.879,15.625,36.133
1644358116.865,16.602,29.297,22.461,21.973,12.695
1644358116.853,12.207,24.414,24.902,17.090,-8.789
1644358116.857,7.812,24.902,26.367,15.625,-8.301
1644358116.861,18.555,27.832,25.391,17.090,-11.719
1644358116.865,34.668,26.855,21.484,24.414,45.410
1644358116.869,35.156,27.344,23.438,27.832,29.297
1644358116.873,17.578,28.320,31.738,21.973,-17.090
1644358116.877,20.508,26.367,30.762,21.484,9.766
1644358116.880,35.645,29.297,28.809,27.344,43.457
1644358116.884,36.133,36.621,24.902,29.785,56.152
1644358116.888,23.438,37.109,24.902,25.879,-15.625
1644358116.892,21.973,33.203,27.832,27.832,-19.043
1644358116.896,40.527,30.762,28.320,38.086,41.504
1644358116.942,46.387,31.250,31.250,38.086,53.711
1644358116.946,32.227,28.320,26.855,27.344,-12.695
1644358116.950,19.043,25.391,21.484,25.879,3.906
1644358116.954,26.855,24.902,30.273,30.762,68.848
1644358116.958,36.621,30.762,38.086,32.715,20.996
1644358116.962,25.391,32.227,36.133,27.832,-8.301
1644358116.966,13.672,30.273,34.668,22.949,-47.363
1644358116.969,20.996,32.715,35.645,28.320,2.441
1644358116.973,32.715,35.645,33.203,38.574,42.969
1644358116.977,28.320,31.738,29.297,36.621,40.039
1644358116.981,11.719,26.855,32.715,24.414,63.965
1644358116.985,15.137,20.996,31.738,20.020,48.828
1644358116.946,31.738,27.344,25.391,21.973,21.484
1644358116.950,32.227,37.598,22.461,23.438,9.277
1644358116.954,21.484,34.180,17.578,21.973,-5.859
1644358116.958,17.090,33.691,22.461,19.531,14.648
1644358116.962,28.809,35.645,32.227,22.949,25.879
1644358116.966,34.668,36.621,30.762,27.344,13.184
1644358116.970,18.555,35.645,31.250,22.949,27.832
1644358116.973,2.930,32.715,40.039,20.508,16.602
1644358116.977,16.113,33.203,35.156,24.902,26.367
1644358116.981,25.391,31.738,25.879,32.227,43.945
1644358116.985,19.531,19.531,28.320,33.691,38.086
1644358116.989,7.812,21.973,30.762,24.902,26.367
1644358117.002,16.113,32.715,29.297,26.855,22.461
1644358117.006,31.738,31.250,27.832,32.227,34.180
1644358117.010,25.391,34.180,26.855,27.344,40.039
1644358117.014,6.836,33.691,28.809,18.555,65.430
1644358117.018,7.812,31.738,33.691,17.578,50.293
1644358117.022,28.809,37.598,34.180,24.414,14.648
1644358117.026,35.156,39.062,33.203,27.344,82.031
1644358117.029,21.973,35.645,30.762,18.066,58.105
1644358117.033,14.160,32.715,29.785,11.719,-3.418
1644358117.037,29.785,32.227,28.320,18.555,45.898
1644358117.041,39.062,31.738,23.438,22.461,28.809
1644358117.045,27.344,29.785,19.043,16.113,3.906
1644358117.017,23.438,33.691,27.832,15.137,-19.043
1644358117.021,34.180,27.832,28.809,22.949,28.809
1644358117.025,38.574,22.949,20.508,30.762,68.848
1644358117.029,35.156,30.762,27.344,34.668,29.785
1644358117.033,20.996,33.691,34.668,26.367,33.203
1644358117.037,16.602,38.574,33.691,28.809,23.926
1644358117.041,35.645,37.109,28.809,40.039,-14.648
1644358117.044,38.086,33.203,27.344,37.598,3.906
1644358117.048,6.348,36.133,33.203,32.227,0.000
1644358117.052,-1.465,32.715,32.227,30.273,34.180
1644358117.056,16.602,25.879,32.227,35.156,39.062
1644358117.060,16.113,25.879,29.297,33.691,2.441
1644358117.077,2.930,30.762,27.344,24.414,11.230
1644358117.081,1.953,32.227,32.227,22.461,42.969
1644358117.085,16.113,29.785,28.809,24.414,44.922
1644358117.089,24.902,26.367,28.320,25.879,35.645
1644358117.093,25.391,30.273,32.227,25.879,40.039
1644358117.097,19.531,34.668,33.691,20.020,6.348
1644358117.101,29.297,29.785,33.691,22.461,53.711
1644358117.104,41.504,27.832,29.785,31.250,57.617
1644358117.108,36.133,22.461,30.762,26.855,-20.508
1644358117.112,22.461,26.367,37.598,20.508,5.371
1644358117.116,22.949,39.062,35.645,22.949,23.926
1644358117.120,34.668,37.598,35.645,28.809,10.254
1644358117.122,27.344,30.762,37.109,29.785,32.227
1644358117.126,12.695,28.809,35.156,25.879,41.992
1644358117.130,18.066,31.250,25.391,24.902,38.574
1644358117.134,37.109,29.297,22.461,29.297,73.730
1644358117.138,46.875,33.203,27.832,30.762,50.781
1644358117.142,34.668,33.691,28.809,22.949,5.371
1644358117.146,23.926,27.344,28.809,19.531,-26.855
1644358117.149,31.250,24.414,24.902,23.438,10.254
1644358117.153,31.738,26.855,26.367,26.367,54.688
1644358117.157,18.066,31.250,32.227,18.066,32.227
1644358117.161,13.184,31.738,33.691,10.254,12.207
1644358117.165,22.949,31.250,25.391,20.508,0.977
1644358117.185,33.691,22.949,26.367,28.809,25.879
1644358117.189,33.203,25.879,32.227,27.344,32.227
1644358117.193,22.461,35.645,32.715,21.484,12.695
1644358117.197,25.879,35.156,30.762,19.531,2.930
1644358117.201,37.598,32.227,24.414,23.438,22.461
1644358117.205,39.551,32.715,28.320,23.926,53.223
1644358117.209,20.996,33.691,29.297,18.066,52.734
1644358117.212,13.184,32.715,29.297,17.090,34.668
1644358117.216,22.949,32.227,32.227,19.043,46.875
1644358117.220,28.320,30.762,24.902,20.996,7.812
1644358117.224,19.043,26.367,25.879,20.020,1.953
1644358117.228,-0.488,26.855,33.203,9.766,66.895
1644358117.227,12.207,31.250,28.320,14.648,34.668
1644358117.231,32.227,33.691,26.855,20.996,62.500
1644358117.235,26.367,32.715,31.250,17.090,50.781
1644358117.239,12.695,31.250,29.785,12.695,-18.555
1644358117.243,21.973,33.203,30.762,13.672,11.230
1644358117.247,30.273,34.180,31.738,19.043,34.180
1644358117.251,21.973,32.227,28.320,20.996,62.988
1644358117.254,10.742,33.691,29.785,15.625,46.387
1644358117.258,4.883,29.785,28.809,10.254,2.930
1644358117.262,22.461,24.902,25.879,18.555,-3.418
1644358117.266,29.785,32.227,25.879,26.367,7.812
1644358117.270,14.160,36.621,30.273,13.184,23.926
1644358117.272,7.812,38.574,34.668,1.465,25.879
1644358117.276,13.184,22.949,33.691,9.766,2.930
1644358117.280,20.508,9.766,31.250,19.043,6.836
1644358117.284,13.184,28.320,31.250,16.113,75.684
1644358117.288,4.883,40.039,29.785,10.742,92.773
1644358117.292,23.438,37.598,24.414,19.531,84.961
1644358117.296,37.109,33.203,28.320,31.738,55.664
1644358117.299,26.855,28.320,34.180,33.203,53.711
1644358117.303,14.160,25.391,30.273,27.344,46.387
1644358117.307,19.531,29.297,27.344,21.484,20.020
1644358117.311,33.203,30.273,25.879,22.949,65.430
1644358117.315,32.227,24.414,29.297,28.320,75.195
1644358117.347,12.695,24.902,32.227,17.090,14.648
1644358117.351,12.695,23.438,29.297,16.113,-2.930
1644358117.355,26.367,22.461,23.926,27.344,28.809
1644358117.359,23.438,28.320,23.926,25.391,44.434
1644358117.363,15.137,20.996,31.738,19.043,52.734
1644358117.367,11.719,22.949,34.180,15.137,23.438
1644358117.371,25.879,40.039,28.809,22.461,-19.531
1644358117.374,33.203,40.527,25.391,24.902,21.484
1644358117.378,24.902,37.109,24.902,14.160,15.137
1644358117.382,14.160,39.551,31.738,11.230,-29.297
1644358117.386,21.973,35.156,35.156,17.578,0.977
1644358117.390,34.668,30.762,26.367,21.973,33.203
1644358117.362,29.297,32.715,22.949,22.949,40.527
1644358117.366,12.695,30.762,26.367,15.137,40.527
1644358117.370,12.695,23.438,31.738,13.184,11.719
1644358117.374,23.926,21.484,29.297,21.973,26.367
1644358117.378,28.809,29.297,29.785,26.367,55.176
1644358117.382,17.578,35.645,34.668,18.066,22.461
1644358117.386,16.113,27.832,32.715,14.160,-14.160
1644358117.389,33.691,26.855,25.879,25.879,12.207
1644358117.393,35.156,35.156,22.461,30.762,24.902
1644358117.397,20.020,31.250,27.344,22.949,-30.762
1644358117.401,8.789,29.785,40.039,17.578,27.344
1644358117.405,19.531,31.250,39.551,21.484,26.855
1644358117.408,29.297,26.367,36.133,29.297,-1.465
1644358117.412,22.461,23.926,38.086,26.367,21.973
1644358117.416,7.324,26.855,38.086,15.137,-29.297
1644358117.420,12.695,27.832,32.715,15.625,-16.113
1644358117.424,23.438,25.391,26.855,24.902,77.637
1644358117.428,22.461,20.508,29.785,25.391,86.426
1644358117.432,18.066,23.926,37.109,17.090,38.086
1644358117.435,17.578,31.738,32.227,14.648,-18.066
1644358117.439,30.273,31.738,22.949,22.949,-14.160
1644358117.443,32.227,28.320,33.203,29.297,28.809
1644358117.447,14.160,25.879,39.551,21.973,24.414
1644358117.451,8.789,30.273,36.621,20.020,-9.766
1644358117.453,20.508,34.180,32.227,26.855,-21.973
1644358117.457,30.273,33.691,33.203,24.414,47.852
1644358117.461,21.484,32.715,34.668,16.113,33.203
1644358117.465,10.254,31.738,31.738,13.184,20.996
1644358117.469,22.461,32.227,32.227,20.996,38.574
1644358117.473,44.434,32.715,22.949,26.367,41.992
1644358117.477,43.945,33.691,18.555,23.438,44.434
1644358117.480,23.438,32.227,25.391,22.461,34.668
1644358117.484,24.902,29.297,28.809,26.367,27.832
1644358117.488,33.691,31.738,30.273,29.785,-1.953
1644358117.492,33.203,28.320,32.715,32.227,17.090
1644358117.496,22.461,27.344,32.715,24.902,41.992
1644358117.497,22.461,32.715,28.320,23.438,77.148
1644358117.501,36.133,32.227,22.461,35.645,85.938
1644358117.505,39.551,35.645,19.043,37.598,14.648
1644358117.509,31.250,34.180,24.414,27.832,24.902
1644358117.513,23.438,28.809,31.250,20.996,62.500
1644358117.517,33.691,31.738,24.414,31.738,24.902
1644358117.521,40.527,32.227,22.461,38.086,-3.906
1644358117.524,31.738,30.273,30.762,21.484,51.270
1644358117.528,26.367,29.785,35.645,16.113,20.996
1644358117.532,34.180,29.297,33.691,19.531,-52.246
1644358117.536,41.992,30.762,30.273,28.809,7.812
1644358117.540,38.086,25.879,33.203,37.109,50.781
1644358117.696,30.762,18.555,30.273,36.621,9.277
1644358117.700,35.645,25.391,26.367,39.551,-12.695
1644358117.704,43.457,33.691,27.832,41.992,29.297
1644358117.708,38.086,33.203,26.855,40.527,69.824
1644358117.712,20.996,36.133,31.738,35.156,52.246
1644358117.716,20.996,34.180,36.621,33.203,16.113
1644358117.720,35.156,28.809,32.715,32.715,8.789
1644358117.723,35.645,27.344,33.203,31.250,19.043
1644358117.727,22.461,26.367,34.668,25.391,41.016
1644358117.731,14.160,26.855,34.180,16.113,20.508
1644358117.735,17.578,28.809,31.250,20.020,16.602
1644358117.739,21.973,31.250,30.273,27.832,30.273
1644358117.701,20.508,34.668,31.738,26.855,24.414
1644358117.705,8.789,32.227,29.785,23.438,48.828
1644358117.709,18.066,26.367,27.344,25.391,41.016
1644358117.713,28.809,27.344,25.391,30.762,-7.812
1644358117.717,19.531,23.926,30.273,29.785,40.039
1644358117.721,10.254,21.484,34.180,25.391,52.734
1644358117.725,9.766,27.832,29.297,23.438,26.367
1644358117.728,17.578,28.320,31.738,30.762,35.156
1644358117.732,20.020,29.785,34.668,35.156,20.996
1644358117.736,8.301,22.949,32.715,22.461,6.348
1644358117.740,5.859,23.438,30.762,16.113,-40.527
1644358117.744,19.043,36.133,24.902,22.461,-18.555
1644358117.708,22.949,36.133,26.367,23.438,24.902
1644358117.712,11.230,34.180,31.738,17.578,0.000
1644358117.716,0.488,31.250,33.203,15.625,-16.113
1644358117.720,16.113,28.809,31.738,20.508,-26.367
1644358117.724,27.344,34.668,30.762,24.414,31.250
1644358117.728,20.508,36.621,32.715,24.414,126.465
1644358117.732,16.602,34.180,33.203,20.020,62.012
1644358117.735,25.391,26.855,31.250,20.996,31.250
1644358117.739,38.086,19.531,31.250,32.227,60.059
1644358117.743,37.109,26.367,33.203,36.133,32.715
1644358117.747,18.066,30.762,39.551,34.180,41.016
1644358117.751,19.043,28.320,41.016,33.203,31.250
1644358117.725,39.062,25.879,38.086,37.598,32.715
1644358117.729,41.016,28.809,37.109,41.992,49.805
1644358117.733,28.320,30.273,37.598,35.156,23.438
1644358117.737,28.809,23.926,30.273,31.738,8.301
1644358117.741,39.551,32.715,23.438,35.156,16.113
1644358117.745,38.086,40.527,35.156,36.133,62.500
1644358117.749,33.203,37.109,40.527,33.691,27.344
1644358117.752,23.926,32.715,35.156,30.273,5.371
1644358117.756,27.832,29.785,29.785,33.203,37.109
1644358117.760,36.621,31.250,28.809,41.016,2.441
1644358117.764,24.902,31.738,34.180,41.016,30.273
1644358117.768,9.277,33.203,35.645,28.809,41.016
1644358117.728,18.066,30.762,35.156,27.344,-3.418
1644358117.732,31.250,30.762,31.738,36.133,22.461
1644358117.736,25.391,34.668,24.902,30.762,31.738
1644358117.740,15.137,32.715,20.996,20.020,48.828
1644358117.744,17.578,33.203,32.715,17.090,8.789
1644358117.748,35.645,35.156,41.504,20.996,19.531
1644358117.752,41.016,35.156,34.180,24.902,42.969
1644358117.755,20.020,25.879,33.203,16.602,-28.320
1644358117.759,10.254,23.926,37.109,15.625,-24.414
1644358117.763,25.879,28.809,38.574,25.879,23.438
1644358117.767,29.785,37.598,36.133,31.250,38.574
1644358117.771,11.230,41.992,34.180,23.438,-8.301
1644358117.767,-2.930,33.203,34.180,11.719,-14.648
1644358117.771,9.766,26.855,25.391,12.695,-5.371
1644358117.775,29.297,28.809,23.926,18.555,-3.418
1644358117.779,27.344,34.180,35.645,18.555,30.273
1644358117.783,15.137,28.809,39.551,10.742,62.012
1644358117.787,24.902,29.297,36.621,13.184,90.820
1644358117.791,40.039,37.109,31.250,20.508,64.941
1644358117.794,26.367,35.645,30.273,10.742,64.941
1644358117.798,7.812,31.250,30.762,4.395,62.500
1644358117.802,8.301,27.344,30.762,12.207,23.926
1644358117.806,22.461,27.832,29.297,23.438,4.395
1644358117.810,27.832,18.066,30.273,28.809,65.918
1644358117.827,16.602,18.066,32.227,28.320,71.289
1644358117.831,8.789,39.062,29.785,24.414,43.457
1644358117.835,15.625,39.062,34.668,23.438,60.059
1644358117.839,25.391,31.250,39.551,29.297,84.961
1644358117.843,15.137,27.832,41.504,20.508,85.449
1644358117.847,1.465,31.250,37.598,3.418,51.758
1644358117.851,17.090,34.668,32.715,10.254,40.039
1644358117.854,35.156,33.203,35.645,20.996,23.438
1644358117.858,28.320,29.785,34.668,19.043,18.066
1644358117.862,15.625,30.762,30.762,11.230,15.625
1644358117.866,24.902,31.738,23.438,14.648,-7.812
1644358117.870,41.504,29.297,15.137,24.414,9.766
1644358117.902,41.016,26.855,21.484,28.320,26.367
1644358117.906,27.344,25.391,28.809,22.461,-6.348
1644358117.910,20.996,32.227,30.762,15.625,19.531
1644358117.914,32.227,27.344,32.227,25.879,75.195
1644358117.918,33.691,20.020,32.227,28.320,95.215
1644358117.922,20.996,34.668,33.203,19.043,60.059
1644358117.926,8.789,41.992,34.668,12.207,6.348
1644358117.929,18.066,36.133,29.785,13.184,-13.184
1644358117.933,35.156,33.691,26.855,20.996,-21.973
1644358117.937,26.855,32.227,27.344,20.020,17.090
1644358117.941,15.137,29.297,22.949,13.184,33.203
1644358117.945,30.273,26.855,22.461,15.137,31.738
1644358117.907,41.504,28.320,29.785,21.973,46.875
1644358117.911,30.273,29.785,24.414,22.949,11.719
1644358117.915,12.207,26.367,22.461,20.020,-7.324
1644358117.919,10.742,20.996,33.203,15.625,0.488
1644358117.923,25.391,23.926,34.668,19.531,24.414
1644358117.927,29.297,29.785,33.203,26.367,13.184
1644358117.931,15.625,28.320,35.645,21.973,17.578
1644358117.934,3.906,18.066,33.203,19.531,30.273
1644358117.938,20.508,19.531,26.367,29.297,11.230
1644358117.942,31.250,32.227,33.203,33.691,36.133
1644358117.946,25.879,35.645,39.551,26.855,71.289
1644358117.950,14.160,34.668,30.762,18.066,2.441
1644358118.127,20.020,31.738,29.785,26.367,16.113
1644358118.131,36.133,19.043,26.855,33.691,61.523
1644358118.135,27.832,25.879,17.090,24.902,11.230
1644358118.139,17.578,36.621,23.438,23.926,-7.324
1644358118.143,26.367,31.738,30.273,29.297,16.113
1644358118.147,39.551,34.180,32.227,28.809,28.320
1644358118.151,38.086,32.227,29.297,31.250,20.020
1644358118.154,29.297,28.320,29.297,27.832,101.562
1644358118.158,22.461,26.367,32.227,23.438,97.168
1644358118.162,30.273,25.391,31.250,28.809,47.363
1644358118.166,36.621,17.090,28.320,35.156,52.734
1644358118.170,24.414,20.996,28.320,26.367,29.785
1644358118.131,14.648,36.621,25.391,20.996,43.457
1644358118.135,21.973,35.645,30.273,32.227,60.547
1644358118.139,30.273,30.273,29.785,38.574,69.824
1644358118.143,24.414,30.273,22.461,35.645,74.219
1644358118.147,14.160,26.855,25.879,26.367,66.406
1644358118.151,24.902,23.438,28.809,29.785,32.715
1644358118.155,36.621,31.738,33.203,35.156,8.301
1644358118.158,29.785,34.668,35.156,31.738,1.465
1644358118.162,13.672,29.297,27.832,26.855,-16.602
1644358118.166,21.973,28.320,22.949,26.855,27.344
1644358118.170,39.062,28.809,28.809,30.762,74.707
1644358118.174,36.621,31.738,29.785,30.273,69.824
1644358118.136,27.344,34.180,25.391,24.414,72.266
1644358118.140,22.461,34.668,27.344,23.438,40.039
1644358118.144,30.762,33.691,31.250,31.250,30.762
1644358118.148,34.668,29.785,30.762,33.203,38.574
1644358118.152,20.508,28.320,35.645,21.973,55.664
1644358118.156,7.812,26.855,39.551,17.090,14.160
1644358118.160,14.160,27.344,31.250,23.438,16.602
1644358118.163,21.484,26.367,28.320,25.879,33.203
1644358118.167,19.043,18.066,27.832,23.926,20.508
1644358118.171,14.648,23.438,24.414,19.531,23.438
1644358118.175,16.113,39.551,25.391,21.484,-15.625
1644358118.179,22.461,39.551,33.691,29.785,-47.363
1644358118.157,25.879,34.180,34.668,29.785,12.695
1644358118.161,15.625,34.668,25.879,19.531,4.883
1644358118.165,16.602,35.645,29.785,15.137,-18.066
1644358118.169,35.156,34.668,35.156,21.484,25.879
1644358118.173,43.457,36.621,32.227,27.832,7.324
1644358118.177,34.180,31.250,31.250,27.832,-27.832
1644358118.181,24.414,21.484,29.297,25.391,-6.348
1644358118.184,34.668,27.832,23.926,29.785,53.711
1644358118.188,46.875,35.645,29.785,31.250,47.852
1644358118.192,36.621,27.832,31.738,24.902,-11.230
1644358118.196,19.043,23.926,27.344,20.508,56.641
1644358118.200,26.855,33.691,26.367,26.855,106.934
1644358118.162,40.527,37.598,26.855,33.203,63.477
1644358118.166,33.691,25.391,31.250,27.344,48.340
1644358118.170,19.043,17.578,34.180,21.973,46.875
1644358118.174,24.414,30.273,38.574,30.273,25.391
1644358118.178,38.574,35.156,38.086,38.086,9.277
1644358118.182,41.016,34.180,38.086,38.086,29.785
1644358118.186,23.926,29.785,37.598,27.832,42.480
1644358118.189,14.160,27.344,30.273,20.508,20.508
1644358118.193,24.902,29.785,30.762,28.809,27.832
1644358118.197,27.344,32.227,33.691,32.715,35.645
1644358118.201,19.043,28.809,32.227,24.414,30.762
1644358118.205,14.160,24.902,31.738,18.066,22.461
1644358118.202,24.414,32.715,35.645,27.344,15.137
1644358118.206,28.320,31.250,36.621,32.715,0.000
1644358118.210,14.648,25.879,34.180,18.555,11.230
1644358118.214,9.766,31.250,35.645,6.836,58.594
1644358118.218,12.695,29.785,38.574,9.766,68.359
1644358118.222,19.531,25.879,36.621,18.066,10.742
1644358118.226,23.438,29.297,29.297,21.973,2.930
1644358118.229,7.812,24.414,33.203,17.578,-29.297
1644358118.233,6.836,17.578,38.574,17.090,-0.488
1644358118.237,24.902,28.809,36.621,26.367,51.758
1644358118.241,27.344,36.133,31.250,24.902,15.137
1644358118.245,13.184,29.785,27.344,14.648,28.809
1644358118.262,12.695,27.344,28.809,20.508,33.203
1644358118.266,22.949,34.668,30.762,27.832,21.484
1644358118.270,23.438,36.621,28.320,25.391,20.508
1644358118.274,8.301,33.203,27.344,14.648,30.762
1644358118.278,2.441,30.762,24.414,10.254,37.598
1644358118.282,19.043,28.320,23.926,16.602,88.379
1644358118.286,34.180,31.250,25.879,21.973,122.070
1644358118.289,29.785,34.668,26.855,20.020,48.828
1644358118.293,17.578,31.738,32.715,14.648,6.348
1644358118.297,22.949,20.508,40.527,19.043,-60.547
1644358118.301,37.109,15.625,41.016,29.297,-32.715
1644358118.305,34.180,22.949,35.156,32.227,41.992
1644358118.457,13.184,29.297,32.715,26.367,44.434
1644358118.461,15.625,33.691,33.203,25.391,32.715
1644358118.465,33.691,34.668,33.203,26.367,-30.273
1644358118.469,35.156,30.762,32.715,22.949,-6.836
1644358118.473,23.438,28.320,36.621,14.648,8.789
1644358118.477,24.902,33.691,38.086,15.625,13.672
1644358118.481,38.574,31.250,33.203,28.320,25.391
1644358118.484,41.504,24.902,29.785,29.297,1.465
1644358118.488,23.438,22.461,35.156,22.949,31.738
1644358118.492,8.301,20.996,46.875,20.996,6.348
1644358118.496,21.484,22.949,44.434,28.320,-36.621
1644358118.500,31.250,23.926,41.992,40.527,16.602
1644358118.462,21.973,20.508,41.016,30.762,34.180
1644358118.466,8.789,25.879,34.668,18.066,-2.441
1644358118.470,20.996,21.484,31.738,30.762,27.344
1644358118.474,34.668,21.973,29.297,43.457,70.801
1644358118.478,32.227,33.691,31.250,41.992,63.965
1644358118.482,26.855,34.180,27.344,34.180,66.406
1644358118.486,27.832,35.645,25.879,33.203,86.426
1644358118.489,40.527,33.691,32.715,37.598,91.309
1644358118.493,41.016,32.227,27.344,36.621,56.152
1644358118.497,25.391,30.273,29.785,29.297,29.297
1644358118.501,18.555,31.250,38.086,23.438,21.973
1644358118.505,37.109,33.691,31.738,29.785,46.387
1644358118.474,39.551,28.809,30.273,33.691,59.570
1644358118.478,15.137,21.484,36.621,25.391,15.137
1644358118.482,5.859,18.066,40.039,20.996,-25.391
1644358118.486,17.090,26.367,39.062,28.809,20.020
1644358118.490,25.391,22.949,33.203,38.574,20.996
1644358118.494,19.043,15.625,34.180,38.086,2.930
1644358118.498,4.395,30.273,41.504,30.762,33.691
1644358118.501,10.254,35.156,38.086,31.738,67.871
1644358118.505,23.926,34.668,29.785,37.598,76.172
1644358118.509,23.438,33.203,31.738,41.504,53.711
1644358118.513,11.719,24.414,38.574,31.250,13.672
1644358118.517,10.254,28.320,36.133,23.438,9.766
1644358118.478,21.973,35.156,31.738,27.832,42.480
1644358118.482,31.250,33.691,27.832,26.855,-12.695
1644358118.486,16.602,30.273,27.344,16.602,-36.621
1644358118.490,7.324,28.809,30.273,8.301,50.293
1644358118.494,21.973,29.297,25.879,16.113,55.664
1644358118.498,27.832,27.832,27.344,21.973,35.156
1644358118.502,18.066,28.320,28.809,12.695,40.039
1644358118.505,8.301,35.645,30.273,5.859,-14.160
1644358118.509,20.996,26.855,34.668,13.672,-21.973
1644358118.513,30.762,23.926,38.086,22.949,10.742
1644358118.517,24.902,41.016,33.203,18.555,49.316
1644358118.521,12.695,38.574,18.555,11.719,47.852
1644358118.482,18.555,32.715,10.742,17.090,59.082
1644358118.486,32.715,33.203,19.531,24.902,70.312
1644358118.490,38.086,31.738,25.391,22.949,79.102
1644358118.494,25.879,36.133,26.855,16.113,25.391
1644358118.498,12.207,37.598,29.297,13.672,-13.184
1644358118.502,24.414,30.273,26.367,21.973,2.930
1644358118.506,30.273,30.762,26.367,23.438,-10.254
1644358118.509,14.648,38.086,26.367,13.184,17.090
1644358118.513,7.324,39.551,29.785,9.277,32.715
1644358118.517,21.484,38.574,31.250,19.531,12.207
1644358118.521,30.273,33.691,21.484,23.438,57.129
1644358118.525,16.113,24.902,27.832,19.531,79.590
1644358118.517,6.348,29.297,35.645,18.066,19.043
1644358118.521,16.113,36.621,25.879,23.438,3.418
1644358118.525,26.855,38.086,21.973,25.879,46.387
1644358118.529,22.949,34.668,27.344,17.090,54.688
1644358118.533,7.812,32.715,31.250,6.348,33.203
1644358118.537,14.648,37.598,29.297,11.230,-17.578
1644358118.541,32.227,38.086,30.762,21.973,-8.301
1644358118.544,31.738,38.574,30.762,19.531,21.973
1644358118.548,20.508,40.527,31.738,15.137,13.184
1644358118.552,19.043,42.480,29.785,16.602,50.781
1644358118.556,36.621,37.109,26.855,24.902,42.480
1644358118.560,44.434,31.738,28.320,23.926,53.223
1644358118.577,28.320,40.039,29.297,14.648,39.551
1644358118.581,15.137,42.480,26.367,13.184,2.930
1644358118.585,23.438,34.668,24.414,10.254,50.781
1644358118.589,28.809,30.762,21.484,16.113,44.922
1644358118.593,18.555,32.715,20.996,17.090,23.438
1644358118.597,3.906,31.738,33.203,8.301,-10.254
1644358118.601,13.184,28.320,38.574,12.695,18.555
1644358118.604,32.227,33.203,34.668,20.996,69.824
1644358118.608,31.738,34.180,30.762,22.461,23.926
1644358118.612,15.625,26.855,23.926,19.531,2.441
1644358118.616,16.602,26.855,20.020,20.020,41.016
1644358118.620,30.762,33.203,22.949,24.902,21.973
1644358118.699,25.879,32.715,26.855,29.297,33.203
1644358118.703,10.254,26.367,34.668,21.973,55.176
1644358118.707,5.859,16.602,38.574,15.625,33.691
1644358118.711,25.391,24.414,32.227,27.832,5.859
1644358118.715,40.039,37.109,30.762,33.203,-35.156
1644358118.719,28.320,35.645,35.645,25.879,-0.488
1644358118.723,19.043,27.832,33.691,24.902,40.527
1644358118.726,25.391,23.926,31.250,31.250,24.414
1644358118.730,34.180,30.273,29.297,34.668,58.594
1644358118.734,32.715,31.250,25.879,30.762,24.414
1644358118.738,19.531,29.297,21.484,26.367,31.738
1644358118.742,24.414,25.391,25.879,33.203,64.453
1644358118.701,40.527,23.926,37.109,38.086,2.441
1644358118.705,39.062,28.320,35.645,33.203,2.441
1644358118.709,24.902,27.832,26.367,26.855,50.293
1644358118.713,24.902,29.297,29.785,27.344,31.738
1644358118.717,40.039,31.250,34.668,37.598,54.688
1644358118.721,38.574,30.273,36.133,43.457,67.871
1644358118.725,25.391,31.738,38.574,37.109,0.488
1644358118.728,27.832,33.691,36.621,32.715,7.812
1644358118.732,41.504,34.668,34.180,36.621,48.828
1644358118.736,45.410,23.926,32.227,40.039,13.672
1644358118.740,37.598,16.113,31.250,37.109,1.953
1644358118.744,31.738,35.156,30.762,30.762,9.277
1644358118.706,39.551,44.922,30.273,32.227,48.340
1644358118.710,46.387,39.062,30.762,37.109,59.082
1644358118.714,38.574,35.645,31.738,37.109,22.949
1644358118.718,18.555,35.645,30.273,27.832,-3.418
1644358118.722,21.484,34.180,27.344,29.297,12.207
1644358118.726,39.551,33.203,31.738,38.574,42.969
1644358118.730,35.645,33.203,34.668,37.109,40.527
1644358118.733,24.902,31.250,33.203,30.273,24.414
1644358118.737,27.344,33.691,32.227,24.414,14.160
1644358118.741,41.016,33.691,35.156,31.250,-11.719
1644358118.745,41.504,28.809,34.180,33.691,-30.273
1644358118.749,20.020,23.926,30.762,21.484,6.836
1644358118.818,14.648,26.367,29.297,12.695,14.648
1644358118.822,24.414,29.297,27.832,17.578,19.043
1644358118.826,27.832,29.785,27.344,30.273,7.812
1644358118.830,27.832,31.250,24.414,29.297,28.320
1644358118.834,8.301,33.691,30.273,16.113,28.809
1644358118.838,6.836,26.855,37.109,17.578,30.273
1644358118.842,28.809,18.555,32.227,26.855,30.762
1644358118.845,30.762,31.250,29.785,28.320,54.199
1644358118.849,12.695,40.527,30.273,22.949,81.055
1644358118.853,11.230,38.086,29.785,20.508,42.969
1644358118.857,30.762,35.645,29.785,25.879,0.977
1644358118.861,32.715,30.762,31.250,24.414,2.441
1644358118.823,17.090,29.785,32.227,18.066,74.219
1644358118.827,13.672,28.809,19.043,12.207,126.465
1644358118.831,28.809,31.738,17.090,17.578,73.242
1644358118.835,38.574,32.715,30.273,24.414,24.414
1644358118.839,38.574,28.809,29.785,21.484,64.453
1644358118.843,25.879,36.621,25.391,17.090,-4.395
1644358118.847,21.973,37.109,30.273,20.020,-7.324
1644358118.850,33.691,33.691,31.250,27.832,33.691
1644358118.854,26.855,38.574,28.320,21.973,17.578
1644358118.858,9.766,37.109,29.785,14.648,47.852
1644358118.862,10.742,29.297,34.180,21.484,23.926
1644358118.866,25.879,29.297,36.133,27.832,-13.672
1644358118.848,27.832,21.973,32.715,25.391,15.625
1644358118.852,15.625,14.648,25.391,22.461,16.602
1644358118.856,18.066,33.691,23.926,23.438,-10.254
1644358118.860,36.621,42.969,28.809,31.250,11.719
1644358118.864,40.527,36.621,30.273,33.203,66.895
1644358118.868,25.391,36.133,31.250,25.879,57.617
1644358118.872,23.438,36.621,32.227,21.973,-8.789
1644358118.875,40.527,34.180,25.879,27.344,-33.691
1644358118.879,43.457,35.645,22.461,31.250,-8.789
1644358118.883,26.367,37.598,25.391,24.902,31.738
1644358118.887,19.531,30.273,27.832,18.555,23.926
1644358118.891,26.855,24.902,25.391,14.648,13.672
1644358118.892,29.785,27.344,23.926,17.090,71.289
1644358118.896,25.879,30.762,26.367,24.414,78.125
1644358118.900,13.184,34.180,29.785,24.902,29.785
1644358118.904,19.043,31.250,35.156,27.344,30.273
1644358118.908,33.691,28.320,32.227,36.133,65.918
1644358118.912,33.691,28.809,28.320,35.156,14.160
1644358118.916,20.020,28.320,32.715,22.461,-15.137
1644358118.919,18.555,26.367,34.668,20.508,37.109
1644358118.923,31.250,14.648,33.691,32.227,50.293
1644358118.927,31.738,15.137,31.738,30.762,63.965
1644358118.931,19.043,34.668,31.250,19.531,45.898
1644358118.935,13.184,37.109,30.273,16.113,-8.301
1644358118.952,29.785,30.762,24.902,26.855,20.996
1644358118.956,36.133,25.391,26.367,34.668,44.434
1644358118.960,17.090,25.391,35.645,23.926,-28.809
1644358118.964,11.230,33.203,37.109,19.531,-39.062
1644358118.968,22.461,30.273,35.156,28.320,-7.324
1644358118.972,21.973,23.438,30.762,28.320,-0.977
1644358118.976,11.719,21.973,33.203,22.949,27.832
1644358118.979,-2.930,23.926,34.180,22.949,33.691
1644358118.983,1.465,20.996,30.273,27.832,22.949
1644358118.987,20.508,20.996,35.156,37.109,24.414
1644358118.991,20.508,32.227,33.691,33.203,74.707
1644358118.995,9.277,31.738,28.809,23.438,86.914
1644358119.044,14.160,27.344,30.273,27.832,5.859
1644358119.048,27.344,25.391,31.738,32.715,-0.977
1644358119.052,30.762,22.461,36.133,33.203,30.762
1644358119.056,21.484,21.484,34.180,25.879,35.156
1644358119.060,6.348,26.855,26.367,17.578,53.711
1644358119.064,23.438,29.785,26.367,27.344,31.738
1644358119.068,40.039,33.691,29.297,36.621,16.113
1644358119.071,22.461,36.133,32.227,30.762,95.215
1644358119.075,6.836,31.738,34.668,22.461,81.055
1644358119.079,20.020,29.785,27.344,26.367,29.785
1644358119.083,34.668,30.273,25.391,33.691,25.391
1644358119.087,26.367,25.391,34.180,29.785,9.277
1644358119.104,11.230,17.090,35.645,24.902,0.977
1644358119.108,15.137,16.602,35.645,29.785,48.340
1644358119.112,28.320,29.785,36.133,38.574,53.711
1644358119.116,31.738,42.969,34.668,36.133,40.527
1644358119.120,21.973,40.039,37.598,27.832,17.578
1644358119.124,18.555,32.715,34.668,26.367,-24.414
1644358119.128,32.227,29.785,31.738,31.738,51.270
1644358119.131,39.551,29.297,30.273,33.203,61.523
1644358119.135,26.855,27.832,27.344,23.438,12.695
1644358119.139,14.648,25.879,28.809,18.066,0.000
1644358119.143,27.344,22.949,26.367,29.785,27.832
1644358119.147,39.551,23.926,28.809,34.668,30.762
1644358119.109,29.785,27.344,36.621,26.367,18.066
1644358119.113,17.578,25.391,37.109,18.555,58.594
1644358119.117,25.879,28.809,36.621,22.461,15.625
1644358119.121,38.574,36.621,31.250,30.273,5.371
1644358119.125,38.574,36.133,30.273,27.344,59.570
1644358119.129,31.250,33.691,34.180,24.902,48.828
1644358119.133,28.809,33.203,30.762,25.391,10.742
1644358119.136,37.109,28.320,29.785,29.785,-14.648
1644358119.140,38.086,18.555,30.273,30.762,-11.230
1644358119.144,26.367,22.949,27.344,21.484,-1.953
1644358119.148,21.484,33.691,28.320,22.461,32.715
1644358119.152,29.785,38.086,26.367,27.832,30.762
1644358119.132,30.762,38.574,20.996,27.344,41.992
1644358119.136,16.113,35.156,20.020,20.020,46.875
1644358119.140,7.324,28.320,24.902,10.742,29.785
1644358119.144,23.926,25.879,31.250,17.090,34.668
1644358119.148,37.598,34.180,32.227,27.344,47.852
1644358119.152,27.832,36.133,30.762,25.879,2.930
1644358119.156,12.695,30.273,29.785,20.996,-28.809
1644358119.159,19.531,31.738,30.273,23.438,48.340
1644358119.163,36.133,36.621,27.344,34.668,60.547
1644358119.167,36.621,35.645,28.809,36.621,-10.742
1644358119.171,17.578,36.133,29.785,30.762,-22.461
1644358119.175,17.090,36.621,26.367,26.367,-2.930
1644358119.193,41.016,30.762,35.645,24.902,29.297
1644358119.197,47.852,29.785,38.574,25.391,22.461
1644358119.201,28.320,36.621,35.645,25.879,10.254
1644358119.205,22.461,29.785,33.203,26.367,29.785
1644358119.209,38.574,19.531,29.297,28.809,39.062
1644358119.213,44.434,38.086,32.227,33.203,47.363
1644358119.217,32.715,46.875,35.645,29.785,20.508
1644358119.220,19.531,37.109,32.227,24.414,15.625
1644358119.224,24.902,36.621,26.855,27.344,31.250
1644358119.228,36.133,35.645,29.297,34.668,20.508
1644358119.232,32.715,31.738,27.832,30.273,-18.066
1644358119.236,18.066,32.715,21.484,21.973,10.742
1644358119.223,21.484,35.645,30.273,26.367,65.918
1644358119.227,36.621,29.785,34.668,28.320,84.961
1644358119.231,32.227,25.391,34.180,25.391,71.777
1644358119.235,18.555,29.785,30.762,23.926,45.898
1644358119.239,12.695,33.691,26.855,22.949,21.973
1644358119.243,22.461,29.297,30.762,23.926,-14.648
1644358119.247,32.715,27.832,27.344,25.391,30.273
1644358119.250,17.578,32.715,24.414,16.602,71.289
1644358119.254,7.324,35.156,29.785,10.742,63.965
1644358119.258,21.484,32.227,27.832,20.020,38.574
1644358119.262,31.250,30.762,26.855,21.973,84.473
1644358119.266,25.879,27.832,38.086,20.508,87.891
1644358119.283,15.625,25.391,38.086,24.902,22.949
1644358119.287,24.902,32.227,33.203,32.227,-42.969
1644358119.291,44.922,33.691,35.645,35.645,-13.184
1644358119.295,44.434,27.832,35.156,28.320,49.805
1644358119.299,29.785,27.832,29.297,24.902,9.277
1644358119.303,30.762,27.344,26.855,31.250,22.461
1644358119.307,44.922,28.320,32.715,37.598,51.270
1644358119.310,42.969,35.645,33.691,33.203,33.203
1644358119.314,23.438,40.039,31.250,25.879,11.230
1644358119.318,23.438,39.062,27.832,20.996,-24.902
1644358119.322,26.855,34.180,23.438,22.949,44.922
1644358119.326,27.344,31.738,30.762,23.438,70.312
1644358119.313,21.973,29.785,32.227,15.625,41.992
1644358119.317,9.766,29.297,27.344,12.695,55.664
1644358119.321,20.020,23.438,25.879,20.508,29.785
1644358119.325,29.785,20.020,26.367,23.438,47.363
1644358119.329,22.461,27.832,27.832,18.555,38.086
1644358119.333,14.160,33.203,27.832,14.648,15.137
1644358119.337,18.066,29.785,26.367,19.043,49.805
1644358119.340,29.785,24.414,22.461,29.785,50.293
1644358119.344,32.715,23.926,17.578,32.715,52.246
1644358119.348,17.578,30.273,19.531,22.949,55.176
1644358119.352,18.066,31.250,25.879,19.043,25.391
1644358119.356,38.574,27.832,30.762,30.762,38.086
1644358119.402,39.551,30.273,31.250,30.762,17.578
1644358119.406,18.555,22.949,29.785,20.020,-12.695
1644358119.410,11.230,15.625,29.785,17.090,-20.020
1644358119.414,22.949,26.855,28.320,25.391,-2.441
1644358119.418,26.855,36.133,25.879,27.344,52.734
1644358119.422,19.043,34.668,25.391,16.113,35.645
1644358119.426,9.766,29.785,24.902,11.719,-44.434
1644358119.429,12.695,25.391,21.973,18.066,22.949
1644358119.433,23.438,27.832,25.391,24.414,54.199
1644358119.437,22.949,33.691,29.785,20.020,8.789
1644358119.441,10.742,27.832,29.785,11.230,27.832
1644358119.445,16.113,25.879,25.879,13.184,72.266
1644358119.407,34.668,31.250,19.043,24.902,90.332
1644358119.411,35.156,30.762,20.020,28.809,78.613
1644358119.415,24.414,24.414,25.879,19.531,46.875
1644358119.419,23.926,23.438,32.715,20.508,15.137
1644358119.423,36.621,27.832,35.156,33.691,22.461
1644358119.427,41.016,29.785,28.809,39.062,58.594
1644358119.431,26.855,26.855,27.344,33.203,55.176
1644358119.434,16.113,25.879,28.809,29.785,55.176
1644358119.438,24.414,26.367,26.367,32.715,71.289
1644358119.442,34.180,26.855,26.855,32.715,6.348
1644358119.446,23.438,23.438,26.855,26.855,8.301
1644358119.450,6.348,22.949,24.902,20.508,9.277
1644358119.462,18.066,21.973,25.879,26.367,8.789
1644358119.466,30.762,20.996,25.879,31.250,34.668
1644358119.470,24.902,30.273,20.020,31.250,61.523
1644358119.474,14.648,34.180,22.949,28.320,58.594
1644358119.478,20.996,33.203,31.738,30.273,-37.598
1644358119.482,35.156,35.156,32.715,35.645,-66.406
1644358119.486,33.691,32.715,30.762,36.133,9.277
1644358119.489,14.160,32.227,33.691,31.250,49.805
1644358119.493,12.207,32.227,35.645,29.297,33.203
1644358119.497,34.668,30.273,37.109,40.039,21.484
1644358119.501,37.598,27.344,34.180,40.039,36.133
1644358119.505,22.461,26.367,27.832,27.832,5.371
1644358119.539,13.184,26.367,25.879,21.973,10.254
1644358119.543,27.832,24.414,26.855,25.391,84.961
1644358119.547,37.109,24.414,26.367,30.762,86.914
1644358119.551,22.461,31.250,22.949,23.926,77.148
1644358119.555,7.324,34.180,21.484,15.625,36.133
1644358119.559,12.695,31.250,24.414,21.973,-6.348
1644358119.563,21.973,27.832,32.715,28.320,34.180
1644358119.566,22.461,29.785,38.086,30.273,0.488
1644358119.570,9.277,32.715,29.297,20.996,-6.348
1644358119.574,12.207,23.926,22.949,20.020,36.133
1644358119.578,33.203,24.902,29.785,30.273,6.348
1644358119.582,36.621,33.203,31.250,33.203,35.156
1644358119.567,22.949,33.691,30.762,25.879,54.199
1644358119.571,20.020,32.715,30.273,16.602,27.344
1644358119.575,33.691,29.785,25.391,21.484,43.945
1644358119.579,34.180,25.879,26.855,23.438,55.664
1644358119.583,18.555,26.367,27.344,12.695,1.465
1644358119.587,7.324,29.297,23.438,9.766,-19.531
1644358119.591,13.184,29.785,23.438,18.066,19.531
1644358119.594,22.461,25.879,21.973,22.949,26.367
1644358119.598,17.578,25.391,22.949,18.555,27.344
1644358119.602,5.859,28.320,20.508,11.230,47.363
1644358119.606,12.695,30.273,19.531,15.137,56.152
1644358119.610,26.367,33.691,18.555,20.508,61.035
1644358119.597,29.785,36.133,17.578,18.555,80.566
1644358119.601,19.043,34.668,19.043,13.184,65.918
1644358119.605,13.672,30.273,17.578,15.625,-4.883
1644358119.609,32.715,27.832,25.879,25.391,-19.531
1644358119.613,35.645,30.273,33.203,23.926,-4.395
1644358119.617,19.043,27.832,27.832,15.137,-18.555
1644358119.621,14.648,16.113,22.949,13.184,26.855
1644358119.624,25.391,18.555,20.508,20.020,37.109
1644358119.628,29.785,33.691,30.762,25.391,-15.137
1644358119.632,22.949,40.039,38.574,25.391,0.000
1644358119.636,13.672,37.598,26.367,18.066,65.430
1644358119.640,18.066,32.715,24.414,18.555,39.062
1644358119.642,26.367,31.250,29.785,24.414,20.996
1644358119.646,22.461,27.832,28.809,21.973,37.109
1644358119.650,9.766,24.414,29.785,16.113,8.789
1644358119.654,13.672,28.320,23.926,14.160,-2.441
1644358119.658,33.691,32.715,21.973,27.344,2.930
1644358119.662,33.691,31.738,28.809,34.180,-3.418
1644358119.666,24.414,23.926,23.438,20.508,30.762
1644358119.669,22.949,22.461,22.461,19.531,46.387
1644358119.673,26.855,31.250,29.297,25.879,30.273
1644358119.677,34.180,29.297,31.738,26.855,27.344
1644358119.681,31.250,26.367,34.668,28.809,10.254
1644358119.685,24.414,34.668,32.715,29.297,31.738
1644358119.717,30.762,33.691,29.297,33.203,73.730
1644358119.721,37.598,29.297,30.762,36.621,87.891
1644358119.725,30.762,32.715,29.785,29.297,23.926
1644358119.729,20.020,22.949,27.344,25.391,-13.672
1644358119.733,31.738,21.484,27.832,29.785,7.324
1644358119.737,43.945,33.691,27.344,37.109,12.695
1644358119.741,34.180,33.203,27.344,31.250,10.742
1644358119.744,14.648,27.832,31.250,16.602,13.672
1644358119.748,16.602,26.855,32.715,18.066,11.719
1644358119.752,31.738,28.809,33.203,26.855,11.719
1644358119.756,29.785,22.949,38.086,29.297,15.137
1644358119.760,10.742,21.484,37.598,24.902,26.367
1644358119.748,9.277,29.297,33.203,19.531,36.133
1644358119.752,20.996,27.344,30.762,19.043,10.742
1644358119.756,21.973,29.297,27.832,20.508,7.812
1644358119.760,10.742,32.715,30.762,18.066,75.195
1644358119.764,6.348,32.227,34.180,14.648,52.734
1644358119.768,22.461,33.691,25.879,20.996,47.852
1644358119.772,33.691,32.715,17.578,28.809,40.527
1644358119.775,24.902,31.738,23.438,22.949,-4.883
1644358119.779,12.695,29.785,33.691,13.184,10.742
1644358119.783,23.438,22.461,33.691,20.020,40.039
1644358119.787,34.668,27.832,27.344,28.809,77.637
1644358119.791,27.832,34.668,26.855,27.832,52.734
1644358119.824,18.555,30.273,27.832,22.949,11.230
1644358119.828,23.438,27.344,27.344,20.508,23.438
1644358119.832,36.133,34.180,24.902,29.297,32.715
1644358119.836,38.086,38.086,25.391,36.621,47.852
1644358119.840,22.461,34.668,26.367,31.738,25.879
1644358119.844,19.043,34.180,20.996,28.809,5.371
1644358119.848,28.809,31.250,20.508,34.668,18.555
1644358119.851,33.203,28.809,25.391,37.598,14.160
1644358119.855,23.438,29.785,28.320,25.879,63.477
1644358119.859,12.695,31.250,26.855,15.137,62.500
1644358119.863,25.391,29.785,26.367,26.367,10.742
1644358119.867,38.086,25.391,28.809,35.156,26.367
1644358119.838,34.668,27.344,31.738,28.809,20.020
1644358119.842,20.508,27.832,32.715,23.438,10.742
1644358119.846,19.531,21.484,26.855,24.414,42.480
1644358119.850,32.715,32.227,28.320,31.250,11.719
1644358119.854,30.762,43.457,29.785,28.809,-19.531
1644358119.858,13.184,37.598,29.785,19.043,-8.789
1644358119.862,13.184,31.250,30.762,20.996,4.883
1644358119.865,29.297,28.320,26.855,31.250,30.273
1644358119.869,29.785,28.320,21.484,34.668,56.641
1644358119.873,21.484,29.297,26.367,31.250,10.254
1644358119.877,22.949,33.203,34.180,30.273,-19.043
1644358119.881,35.645,32.715,34.668,39.551,45.410
1644358119.898,40.039,25.879,32.227,42.969,89.844
1644358119.902,23.438,24.414,31.738,39.062,5.371
1644358119.906,10.742,22.949,35.156,40.039,-37.109
1644358119.910,23.438,22.461,39.062,45.410,37.598
1644358119.914,31.250,33.203,39.551,42.480,77.148
1644358119.918,27.344,37.598,37.598,39.551,68.359
1644358119.922,15.137,31.738,32.715,36.133,32.715
1644358119.925,12.695,28.809,34.180,34.668,-20.020
1644358119.929,26.367,29.297,36.133,38.574,-10.742
1644358119.933,31.738,31.250,28.809,36.133,27.344
1644358119.937,20.996,31.250,33.203,28.809,38.086
1644358119.941,16.602,18.066,38.574,25.391,44.922
1644358119.944,27.832,24.414,37.598,31.250,44.434
1644358119.948,39.062,43.457,32.227,36.621,36.133
1644358119.952,33.691,43.945,29.297,29.785,11.719
1644358119.956,16.602,36.133,28.809,16.602,3.418
1644358119.960,17.578,31.250,25.391,17.090,70.312
1644358119.964,24.414,33.203,27.832,22.949,44.434
1644358119.968,22.949,36.133,28.320,22.461,70.801
1644358119.971,12.207,35.645,27.832,19.043,78.125
1644358119.975,15.137,32.715,32.227,24.902,35.645
1644358119.979,33.203,33.691,31.250,33.691,62.500
1644358119.983,35.645,35.156,25.879,31.738,19.043
1644358119.987,30.273,32.227,17.090,19.043,28.809
1644358120.003,31.250,31.250,20.020,13.672,42.480
1644358120.007,39.551,29.785,30.273,24.902,38.574
1644358120.011,38.574,30.762,28.809,25.879,66.406
1644358120.015,25.391,31.738,28.320,18.555,26.367
1644358120.019,22.461,27.344,34.180,20.020,37.109
1644358120.023,32.715,27.832,28.809,25.879,66.895
1644358120.027,41.016,31.738,23.926,26.367,18.066
1644358120.030,33.203,26.367,30.273,18.066,44.922
1644358120.034,22.461,22.461,35.645,17.090,37.109
1644358120.038,33.691,32.227,33.691,24.414,14.160
1644358120.042,43.457,36.133,34.668,26.855,22.949
1644358120.046,31.738,31.250,31.250,18.555,25.391
1644358120.017,23.926,31.250,28.809,17.090,22.461
1644358120.021,34.180,30.762,30.762,32.227,39.062
1644358120.025,42.480,35.156,32.227,35.156,61.035
1644358120.029,32.715,34.668,32.715,25.879,17.578
1644358120.033,16.602,30.273,29.297,13.672,-1.465
1644358120.037,19.043,26.855,30.273,13.184,-2.930
1644358120.041,32.227,27.344,30.762,22.949,28.809
1644358120.044,33.691,40.039,29.297,19.531,33.203
1644358120.048,15.625,42.480,32.227,9.766,51.270
1644358120.052,-1.953,31.250,37.109,7.324,51.758
1644358120.056,0.977,32.227,37.109,-4.883,22.461
1644358120.060,-4.395,38.086,34.180,-16.113,10.742
1644358120.078,-26.855,40.039,36.133,-19.531,11.719
1644358120.082,-41.992,44.434,33.691,-26.367,-4.395
1644358120.086,-36.621,50.293,32.715,-41.504,-28.320
1644358120.090,-29.785,47.852,34.668,-34.668,-0.488
1644358120.094,-40.039,48.828,27.344,-28.809,62.500
1644358120.098,-53.711,47.852,36.133,-40.039,17.090
1644358120.102,-32.715,52.734,45.898,-28.320,-33.691
1644358120.105,-16.602,51.758,34.180,-21.973,36.621
1644358120.109,-24.414,31.250,29.297,-25.391,17.578
1644358120.113,-20.996,40.039,32.715,-19.531,7.324
1644358120.117,-13.184,60.059,28.320,-11.230,15.137
1644358120.121,-1.465,46.387,24.414,-5.371,3.906
1644358120.152,5.859,27.344,25.879,-0.488,20.508
1644358120.156,-5.371,29.297,27.344,-8.301,25.879
1644358120.160,-16.602,36.621,27.344,-18.555,21.484
1644358120.164,-8.301,39.551,26.367,-15.137,21.484
1644358120.168,6.348,37.109,29.297,-6.348,26.855
1644358120.172,-6.836,35.645,32.227,-15.137,37.598
1644358120.176,-29.785,34.668,30.762,-27.832,25.391
1644358120.179,-14.160,37.598,29.297,-15.625,42.480
1644358120.183,-0.977,40.039,24.902,-7.812,40.527
1644358120.187,-7.324,39.551,24.414,-12.207,-2.441
1644358120.191,-13.672,40.039,33.691,-17.090,-16.113
1644358120.195,-18.555,41.992,37.598,-22.461,-0.488
1644358120.157,-16.602,41.016,36.133,-25.391,3.418
1644358120.161,-11.230,43.457,29.785,-23.926,24.902
1644358120.165,-18.555,43.945,25.391,-22.949,7.324
1644358120.169,-22.461,36.621,29.785,-23.926,-11.719
1644358120.173,-7.324,35.645,31.250,-15.137,74.707
1644358120.177,5.859,38.574,36.621,-4.883,67.383
1644358120.181,-5.371,37.598,43.945,-11.230,31.250
1644358120.184,-19.043,37.109,43.457,-19.043,49.316
1644358120.188,-3.418,38.086,37.598,-7.812,28.809
1644358120.192,5.859,35.645,28.320,2.441,-4.395
1644358120.196,-8.789,33.691,25.391,-5.859,42.969
1644358120.200,-22.461,31.250,30.273,-13.184,78.613
1644358120.259,-9.277,30.273,31.250,-7.812,55.176
1644358120.263,4.883,32.715,31.250,-8.301,61.523
1644358120.267,-2.441,32.715,27.832,-10.254,58.594
1644358120.271,-13.672,36.133,34.180,-13.184,59.570
1644358120.275,-9.277,40.039,42.480,-17.578,56.641
1644358120.279,1.465,31.738,37.598,-9.766,35.156
1644358120.283,0.488,25.391,33.203,-3.418,28.809
1644358120.286,-4.883,28.320,32.715,-6.836,5.859
1644358120.290,-18.066,32.227,35.645,-19.531,-31.738
1644358120.294,-20.020,37.598,41.992,-20.020,16.113
1644358120.298,-9.277,46.875,42.969,-20.996,16.602
1644358120.302,-26.367,44.922,41.016,-34.668,10.254
1644358120.263,-56.152,35.645,48.340,-47.852,16.602
1644358120.267,-55.176,35.156,51.270,-52.246,-21.973
1644358120.271,-60.547,37.598,50.293,-61.035,13.184
1644358120.275,-92.773,40.039,51.270,-85.938,35.645
1644358120.279,-109.863,30.762,50.781,-101.562,30.273
1644358120.283,-114.746,43.457,51.758,-110.352,24.902
1644358120.287,-128.906,63.477,50.293,-127.930,22.461
1644358120.290,-133.789,65.430,44.434,-137.207,38.574
1644358120.294,-141.113,66.895,33.691,-136.230,9.766
1644358120.298,-141.113,71.289,30.762,-134.766,19.043
1644358120.302,-123.535,78.125,32.715,-129.395,51.270
1644358120.306,-110.352,80.566,32.227,-115.723,44.434
1644358120.304,-117.676,80.078,32.715,-118.652,24.414
1644358120.308,-122.070,76.660,34.180,-119.141,-10.254
1644358120.312,-98.633,75.684,37.598,-98.633,-17.090
1644358120.316,-85.449,69.336,35.645,-83.984,7.324
1644358120.320,-78.613,58.105,34.668,-75.195,79.590
1644358120.324,-58.594,62.012,31.250,-54.688,59.082
1644358120.328,-35.156,54.688,20.996,-30.762,35.156
1644358120.331,-16.602,44.922,19.531,-18.555,46.387
1644358120.335,-7.812,55.176,22.461,-11.719,11.719
1644358120.339,-1.953,52.246,19.531,-1.953,-23.438
1644358120.343,10.254,41.016,17.578,15.625,-12.207
1644358120.347,33.203,28.809,16.113,41.504,51.270
1644358120.348,51.758,22.949,13.184,62.988,98.145
1644358120.352,47.852,18.066,13.672,67.383,59.082
1644358120.356,55.176,5.859,15.137,80.078,-4.883
1644358120.360,79.590,3.418,14.160,94.727,18.555
1644358120.364,89.355,7.324,14.648,97.168,14.160
1644358120.368,86.914,4.395,14.648,98.633,-28.320
1644358120.372,91.797,-1.465,11.230,100.098,37.598
1644358120.375,115.234,-3.906,8.789,105.469,18.555
1644358120.379,132.324,-2.441,4.395,119.141,-13.672
1644358120.383,125.977,-3.418,3.906,127.441,70.801
1644358120.387,114.258,-4.395,7.324,122.559,57.129
1644358120.391,122.559,-7.812,4.395,130.371,21.973
1644358120.392,140.625,-9.766,3.418,142.578,29.785
1644358120.396,145.508,-10.742,7.812,139.160,9.766
1644358120.400,132.812,-5.859,7.812,135.742,8.301
1644358120.404,132.324,2.441,4.883,140.137,2.930
1644358120.408,140.625,1.465,3.906,139.160,-3.418
1644358120.412,135.254,3.906,4.883,138.184,23.438
1644358120.416,119.141,3.906,9.277,124.512,53.711
1644358120.419,110.352,1.465,15.137,115.723,41.016
1644358120.423,114.746,-0.488,16.602,126.465,54.199
1644358120.427,110.352,-4.883,16.113,126.465,38.574
1644358120.431,101.562,-2.930,18.066,119.141,20.508
1644358120.435,96.680,5.371,17.578,110.352,38.574
1644358120.452,106.934,8.301,18.555,110.352,12.695
1644358120.456,111.328,6.348,19.043,111.816,-7.324
1644358120.460,101.074,6.348,12.695,103.516,-0.488
1644358120.464,87.891,9.277,14.160,96.680,24.902
1644358120.468,90.332,9.277,11.230,98.633,54.199
1644358120.472,97.656,7.812,14.648,99.121,59.082
1644358120.476,91.309,8.789,20.996,88.867,19.043
1644358120.479,82.031,5.859,23.926,80.078,-10.254
1644358120.483,86.426,3.418,22.949,83.008,21.484
1644358120.487,99.609,13.184,17.090,88.379,43.945
1644358120.491,98.633,21.973,18.555,87.402,0.000
1644358120.495,86.914,22.461,16.113,84.961,35.156
1644358120.512,88.867,20.508,18.555,83.984,77.148
1644358120.516,96.680,20.020,25.879,85.938,0.488
1644358120.520,98.633,15.137,21.973,84.961,-4.883
1644358120.524,85.938,15.625,17.090,79.102,49.805
1644358120.528,71.777,20.996,20.508,71.289,58.105
1644358120.532,81.055,19.531,21.973,71.289,46.387
1644358120.536,79.590,16.602,18.555,73.242,3.418
1644358120.539,62.500,21.484,24.414,62.988,-6.836
1644358120.543,55.664,27.344,26.855,55.176,-38.086
1644358120.547,61.035,23.926,23.438,57.617,-10.742
1644358120.551,71.777,20.996,27.832,62.988,26.855
1644358120.555,72.754,24.414,29.785,67.871,-20.996
1644358120.559,64.453,20.508,28.809,64.941,0.977
1644358120.563,63.965,11.230,28.809,58.594,13.184
1644358120.567,73.242,18.555,23.438,63.965,26.855
1644358120.571,71.289,25.879,26.367,68.848,-1.465
1644358120.575,53.223,23.926,34.180,56.152,-25.391
1644358120.579,45.410,19.531,34.668,47.363,-20.020
1644358120.583,53.711,19.043,30.762,58.594,14.160
1644358120.586,58.594,24.414,31.250,62.500,59.082
1644358120.590,56.152,25.879,30.762,50.781,19.043
1644358120.594,55.664,26.367,25.879,43.945,33.691
1644358120.598,63.965,30.762,28.320,45.898,97.656
1644358120.602,60.547,31.250,33.203,49.316,59.082
1644358120.662,41.504,24.902,36.621,46.387,14.160
1644358120.666,25.879,19.531,35.156,33.691,7.812
1644358120.670,28.320,19.043,31.738,34.180,-12.695
1644358120.674,32.227,22.949,33.203,42.480,9.766
1644358120.678,26.367,26.855,32.227,41.016,15.625
1644358120.682,13.672,29.297,32.227,35.156,23.438
1644358120.686,11.719,26.855,36.621,32.227,40.039
1644358120.689,17.578,26.855,35.156,35.156,21.484
1644358120.693,20.996,22.949,33.691,32.715,24.414
1644358120.697,11.719,14.160,39.062,23.926,38.086
1644358120.701,1.465,23.926,36.133,20.020,25.391
1644358120.705,11.230,29.785,30.762,22.949,20.020
1644358120.667,16.113,23.438,32.715,24.902,15.137
1644358120.671,7.812,20.020,32.715,20.508,12.207
1644358120.675,-3.906,20.996,29.785,20.996,25.391
1644358120.679,9.277,23.926,29.297,26.855,28.809
1644358120.683,23.438,24.902,29.297,32.227,57.129
1644358120.687,21.484,26.367,29.785,32.715,38.574
1644358120.691,20.020,29.297,30.762,28.320,12.207
1644358120.694,23.438,27.344,30.273,33.203,19.531
1644358120.698,29.785,23.926,28.320,41.504,-5.371
1644358120.702,29.785,26.367,26.855,43.457,20.020
1644358120.706,20.508,27.344,29.785,39.551,76.660
1644358120.710,17.578,26.367,28.320,34.668,-2.441
1644358120.722,24.414,26.855,26.855,40.039,-19.531
1644358120.726,24.414,28.809,27.832,39.551,53.711
1644358120.730,17.578,25.391,33.203,31.250,33.203
1644358120.734,14.648,25.879,36.621,29.297,-18.066
1644358120.738,21.973,32.715,34.180,27.344,-32.227
1644358120.742,21.484,34.668,30.762,25.879,9.766
1644358120.746,16.113,30.273,30.762,23.926,12.695
1644358120.749,10.254,25.879,32.227,17.090,22.461
1644358120.753,18.066,29.297,32.715,11.230,24.902
1644358120.757,29.297,20.020,32.715,16.113,-7.324
1644358120.761,23.926,14.160,32.227,19.531,23.438
1644358120.765,13.672,31.250,33.203,12.695,37.598
1644358120.726,12.207,37.598,25.391,11.230,-12.207
1644358120.730,22.949,35.645,20.996,20.508,32.227
1644358120.734,24.902,36.621,28.320,21.484,33.203
1644358120.738,7.812,33.203,28.320,4.883,23.438
1644358120.742,9.277,30.273,20.508,0.977,-4.883
1644358120.746,22.461,25.391,21.973,17.578,15.625
1644358120.750,31.738,26.367,31.250,30.273,29.785
1644358120.753,31.250,29.785,32.715,32.227,22.461
1644358120.757,23.438,27.832,30.273,28.320,48.828
1644358120.761,34.180,32.227,28.320,29.297,26.855
1644358120.765,41.504,33.203,25.879,34.668,43.945
1644358120.769,35.156,29.297,24.902,31.738,70.312
1644358120.768,30.762,26.855,23.438,24.414,36.133
1644358120.772,39.551,20.508,26.367,22.949,28.809
1644358120.776,45.410,21.484,25.391,28.320,18.555
1644358120.780,34.668,31.738,22.461,28.320,-14.648
1644358120.784,23.926,33.203,26.855,23.926,-9.766
1644358120.788,22.949,31.738,27.832,25.391,48.340
1644358120.792,31.738,29.785,25.879,29.297,55.176
1644358120.795,33.691,30.273,21.973,27.344,-11.230
1644358120.799,23.438,25.391,24.414,25.391,29.785
1644358120.803,13.184,23.438,28.809,25.391,73.730
1644358120.807,19.531,36.133,23.438,27.832,23.926
1644358120.811,23.926,35.645,28.320,27.832,-4.883
1644358120.873,13.184,28.320,31.738,23.926,7.812
1644358120.877,13.672,28.809,26.367,20.996,28.320
1644358120.881,27.344,28.320,28.320,25.879,33.691
1644358120.885,39.551,31.738,24.902,26.855,24.414
1644358120.889,37.109,31.738,22.461,25.391,3.906
1644358120.893,25.391,28.809,30.762,27.832,56.641
1644358120.897,24.414,34.180,30.273,18.066,85.938
1644358120.900,36.133,36.621,26.855,22.949,34.668
1644358120.904,38.086,36.133,27.832,32.715,37.109
1644358120.908,28.809,35.645,28.320,24.414,55.664
1644358120.912,30.273,29.297,28.809,26.855,10.254
1644358120.916,37.109,30.273,29.297,36.621,8.789
1644358120.877,29.785,31.250,31.250,29.297,28.320
1644358120.881,17.578,26.855,30.762,16.602,35.645
1644358120.885,14.160,27.344,23.438,13.672,13.184
1644358120.889,16.113,22.949,20.996,19.531,6.348
1644358120.893,20.020,25.879,23.438,24.902,6.348
1644358120.897,10.742,40.527,23.438,14.648,-4.395
1644358120.901,-1.465,38.574,24.902,9.277,41.016
1644358120.904,11.719,34.668,24.414,17.578,11.719
1644358120.908,20.020,33.691,25.391,20.020,-43.945
1644358120.912,6.348,31.738,27.344,16.113,11.230
1644358120.916,-7.812,30.273,22.949,12.695,56.641
1644358120.920,-5.859,29.297,19.043,11.719,-1.953
1644358120.933,-4.395,30.273,20.508,16.602,24.414
1644358120.937,-9.766,26.367,26.855,20.020,56.152
1644358120.941,-21.973,24.902,31.250,14.160,19.531
1644358120.945,-23.438,33.203,25.879,9.277,16.602
1644358120.949,-14.648,29.297,21.484,11.719,63.965
1644358120.953,-20.996,28.809,19.043,15.625,68.359
1644358120.957,-31.738,33.203,27.832,12.695,-26.367
1644358120.960,-33.203,29.297,35.156,7.324,-9.766
1644358120.964,-29.297,31.250,30.762,5.859,52.734
1644358120.968,-30.762,34.180,28.809,2.441,38.086
1644358120.972,-37.598,33.203,26.855,-3.906,15.137
1644358120.976,-45.410,29.785,22.949,-2.930,-33.691
1644358120.963,-43.945,27.344,24.414,8.301,0.977
1644358120.967,-38.574,22.949,23.926,10.742,52.246
1644358120.971,-44.434,15.137,22.949,10.742,16.113
1644358120.975,-64.453,20.508,28.809,1.465,-15.625
1644358120.979,-62.500,32.227,28.809,-3.906,16.602
1644358120.983,-47.363,31.250,27.832,3.418,54.199
1644358120.987,-49.316,27.344,22.461,-0.488,18.555
1644358120.990,-55.176,30.273,24.414,-5.371,-3.418
1644358120.994,-47.363,25.879,34.668,-1.953,34.668
1644358120.998,-36.133,23.926,29.785,5.371,7.812
1644358121.002,-29.785,30.273,27.832,10.254,-30.273
1644358121.006,-29.297,31.250,27.344,12.695,19.043
1644358121.038,-19.531,25.879,26.367,9.277,77.637
1644358121.042,2.930,24.902,31.738,14.648,66.406
1644358121.046,8.789,30.273,30.762,22.949,17.090
1644358121.050,6.348,35.156,27.832,15.625,7.324
1644358121.054,4.395,29.785,24.902,9.766,19.043
1644358121.058,17.578,21.484,28.809,16.602,-14.648
1644358121.062,32.715,29.785,25.879,22.461,3.418
1644358121.065,31.250,36.621,26.367,16.602,35.645
1644358121.069,24.902,36.133,35.156,6.836,-7.812
1644358121.073,29.785,33.203,31.738,8.789,-6.836
1644358121.077,40.527,28.809,27.832,16.602,33.203
1644358121.081,43.945,26.855,25.879,21.484,34.668
1644358121.052,36.133,27.832,26.367,16.602,37.109
1644358121.056,41.504,26.367,26.367,18.066,28.320
1644358121.060,62.500,23.926,24.902,27.344,-6.836
1644358121.064,71.777,27.832,25.391,29.785,39.551
1644358121.068,70.312,34.668,26.855,28.809,62.500
1644358121.072,67.871,32.715,28.809,24.414,24.414
1644358121.076,76.172,26.855,26.367,28.809,-10.254
1644358121.079,83.008,26.855,24.902,37.598,16.113
1644358121.083,72.266,29.785,27.344,31.250,48.340
1644358121.087,62.988,28.320,28.809,24.414,18.066
1644358121.091,62.988,24.414,24.902,22.949,-1.465
1644358121.095,60.547,24.414,19.043,23.438,-11.719
1644358121.097,54.688,25.391,25.391,20.996,52.246
1644358121.101,34.180,27.832,28.809,10.254,86.426
1644358121.105,21.973,22.461,31.738,9.277,11.230
1644358121.109,19.043,14.160,37.598,8.301,19.531
1644358121.113,10.742,19.531,37.109,4.395,63.477
1644358121.117,-3.418,25.391,36.621,5.371,68.359
1644358121.121,-9.766,25.391,34.668,6.348,56.641
1644358121.124,-0.977,23.438,28.809,6.348,18.555
1644358121.128,5.859,23.926,28.320,11.230,-36.621
1644358121.132,5.859,22.461,27.832,12.207,-18.066
1644358121.136,0.977,11.230,27.344,5.371,42.480
1644358121.140,12.695,21.973,31.738,11.230,27.832
1644358121.142,24.902,37.109,24.902,16.602,-12.207
1644358121.146,24.414,32.227,19.531,14.160,13.672
1644358121.150,22.949,31.250,24.902,17.090,38.086
1644358121.154,29.785,32.227,29.785,18.555,79.102
1644358121.158,39.062,29.297,33.203,19.531,60.059
1644358121.162,41.504,27.832,34.180,21.973,-10.254
1644358121.166,37.598,26.367,32.227,16.602,5.371
1644358121.169,39.551,23.438,29.297,15.137,10.742
1644358121.173,47.852,24.902,31.738,18.066,4.883
1644358121.177,51.758,31.738,31.250,19.531,18.555
1644358121.181,43.457,28.809,25.391,12.695,11.719
1644358121.185,45.898,24.414,25.879,7.324,46.387
1644358121.323,63.477,23.926,30.762,20.020,60.547
1644358121.327,66.406,21.484,28.809,24.414,12.207
1644358121.331,58.105,28.809,20.996,20.508,21.973
1644358121.335,55.176,31.738,20.996,20.020,30.273
1644358121.339,62.988,28.809,21.484,21.484,2.441
1644358121.343,70.801,31.738,18.066,23.926,31.738
1644358121.347,72.266,36.621,18.066,19.531,25.879
1644358121.350,64.453,36.621,22.949,17.090,-39.062
1644358121.354,57.129,32.715,31.738,21.484,-31.250
1644358121.358,63.965,24.902,30.762,23.926,10.742
1644358121.362,65.918,20.020,30.273,26.367,29.297
1644358121.366,58.105,31.738,26.855,26.367,87.402
1644358121.327,56.641,33.691,17.578,25.391,74.219
1644358121.331,68.848,29.297,20.020,30.273,15.625
1644358121.335,78.125,30.762,26.367,34.180,-19.531
1644358121.339,67.383,27.832,25.391,25.391,14.648
1644358121.343,52.734,23.926,26.367,18.555,51.270
1644358121.347,56.641,30.273,21.484,22.949,12.207
1644358121.351,63.477,36.133,13.672,28.320,-6.348
1644358121.354,54.688,32.715,24.414,26.367,28.320
1644358121.358,43.457,26.855,31.250,18.066,39.551
1644358121.362,46.875,28.320,27.832,16.113,20.020
1644358121.366,53.711,30.762,23.926,22.461,27.832
1644358121.370,49.805,28.809,23.926,27.344,17.090
1644358121.331,39.551,28.809,27.832,27.344,-0.977
1644358121.335,40.039,27.344,30.273,30.273,56.152
1644358121.339,48.828,27.344,32.227,33.203,53.711
1644358121.343,48.828,32.715,31.250,33.203,18.555
1644358121.347,43.457,31.250,29.785,29.297,30.273
1644358121.351,43.457,19.531,27.832,31.250,1.953
1644358121.355,52.734,27.344,24.902,38.574,-29.785
1644358121.358,57.617,34.180,20.996,40.527,-35.645
1644358121.362,56.152,31.738,22.949,37.598,7.324
1644358121.366,50.781,36.621,28.809,38.086,42.480
1644358121.370,49.316,33.691,27.344,43.945,-10.254
1644358121.374,52.246,27.832,28.809,44.922,-65.430
1644358121.338,41.504,28.809,34.668,45.410,50.293
1644358121.342,27.344,31.738,31.738,47.363,104.492
1644358121.346,34.180,31.250,29.785,51.270,21.973
1644358121.350,47.363,30.273,36.133,52.246,1.953
1644358121.354,47.852,28.320,30.762,49.316,6.348
1644358121.358,37.109,27.832,26.367,44.434,45.898
1644358121.362,35.645,30.762,33.203,38.574,60.547
1644358121.365,44.434,28.809,36.133,42.480,76.660
1644358121.369,45.898,29.785,35.645,40.039,44.922
1644358121.373,32.227,21.484,34.180,27.832,-18.555
1644358121.377,26.855,12.207,31.250,19.043,-12.207
1644358121.381,35.645,26.367,30.762,22.461,9.277
1644358121.412,37.109,37.598,31.250,28.809,69.336
1644358121.416,24.902,37.598,32.715,25.391,74.707
1644358121.420,13.672,36.133,31.250,19.531,28.809
1644358121.424,21.484,35.645,30.762,18.066,44.922
1644358121.428,29.297,31.738,33.203,16.113,24.414
1644358121.432,23.438,24.902,32.227,7.812,62.012
1644358121.436,14.160,24.902,26.855,2.441,57.129
1644358121.439,21.484,30.273,25.391,1.465,-15.137
1644358121.443,27.832,27.832,30.273,0.488,15.625
1644358121.447,25.879,24.414,37.109,5.371,28.320
1644358121.451,17.090,24.902,37.598,3.906,59.570
1644358121.455,20.996,22.461,27.344,-0.977,32.227
1644358121.427,38.574,27.832,23.926,4.395,37.598
1644358121.431,37.109,37.598,30.762,3.906,95.703
1644358121.435,20.508,33.691,30.762,-2.930,62.012
1644358121.439,9.766,29.297,25.879,-3.418,52.246
1644358121.443,14.648,31.250,23.438,-1.953,47.363
1644358121.447,17.090,25.879,27.344,-3.906,-6.836
1644358121.451,4.883,21.484,30.273,-12.207,-8.301
1644358121.454,-1.953,21.973,28.809,-19.043,-11.719
1644358121.458,10.742,25.879,28.809,-14.160,-34.180
1644358121.462,19.531,37.109,23.438,-11.719,13.672
1644358121.466,5.371,38.574,16.602,-20.508,1.465
1644358121.470,-2.441,34.668,20.020,-30.762,4.395
1644358121.473,4.883,32.715,21.484,-28.320,26.855
1644358121.477,9.766,23.926,25.879,-20.508,-4.395
1644358121.481,11.230,23.926,31.250,-14.648,21.973
1644358121.485,0.977,33.691,30.273,-21.484,50.781
1644358121.489,1.465,32.227,31.250,-20.020,53.711
1644358121.493,20.020,30.762,31.738,2.441,8.301
1644358121.497,34.668,32.715,32.227,8.789,-32.715
1644358121.500,25.879,32.227,29.297,4.883,-32.715
1644358121.504,24.414,27.832,27.344,16.113,-39.062
1644358121.508,42.480,23.926,23.438,23.438,-36.133
1644358121.512,47.363,26.367,21.484,24.902,-36.621
1644358121.516,40.527,25.391,24.414,28.320,-14.648
1644358121.517,35.156,26.855,25.879,30.273,-0.488
1644358121.521,50.293,29.297,26.855,38.574,-6.348
1644358121.525,64.453,28.320,25.879,48.340,29.297
1644358121.529,60.059,29.785,27.344,48.340,14.648
1644358121.533,53.711,27.832,29.297,49.316,32.227
1644358121.537,56.641,10.742,27.832,58.594,7.812
1644358121.541,70.801,20.508,27.832,62.988,7.324
1644358121.544,71.777,41.504,31.738,65.918,102.539
1644358121.548,62.988,36.621,36.133,72.754,88.867
1644358121.552,66.406,33.691,35.156,76.660,36.621
1644358121.556,77.148,35.645,28.320,81.055,26.855
1644358121.560,87.891,37.109,27.344,89.844,23.438
1644358121.624,82.031,34.180,28.809,92.285,18.066
1644358121.628,72.266,31.250,32.227,97.168,20.020
1644358121.632,85.938,31.250,28.809,112.793,23.926
1644358121.636,98.633,31.738,24.902,125.488,56.152
1644358121.640,89.844,31.250,27.344,118.164,42.480
1644358121.644,69.336,28.809,24.902,97.168,31.738
1644358121.648,65.430,31.250,25.879,77.637,27.344
1644358121.651,70.312,28.320,34.180,68.359,24.414
1644358121.655,62.988,27.344,36.621,62.500,61.523
1644358121.659,46.875,35.156,34.180,49.805,67.871
1644358121.663,39.551,34.180,32.227,34.668,52.734
1644358121.667,46.387,30.273,27.344,22.461,63.965
1644358121.629,43.945,28.809,26.855,9.766,55.176
1644358121.633,22.461,30.273,29.785,-6.348,60.547
1644358121.637,10.254,26.367,24.414,-18.555,88.867
1644358121.641,20.996,16.113,21.484,-20.996,92.773
1644358121.645,25.879,28.320,25.879,-17.578,74.707
1644358121.649,17.578,40.527,20.020,-17.090,33.691
1644358121.653,4.395,29.297,23.926,-19.043,22.461
1644358121.656,17.578,25.879,33.203,-7.324,10.254
1644358121.660,32.227,34.668,29.785,6.836,43.457
1644358121.664,24.414,30.762,27.832,7.812,69.336
1644358121.668,17.090,26.367,30.273,8.789,1.465
1644358121.672,20.996,31.250,29.785,17.090,-7.324
1644358121.712,37.109,33.203,29.785,30.762,43.457
1644358121.716,41.504,30.762,30.273,38.086,35.645
1644358121.720,22.949,25.391,29.785,40.527,-3.418
1644358121.724,20.020,24.902,29.785,44.434,-27.832
1644358121.728,33.691,32.715,25.879,49.805,16.113
1644358121.732,38.086,31.250,23.438,53.223,32.715
1644358121.736,30.273,28.320,22.461,53.711,33.691
1644358121.739,24.902,27.344,26.855,54.688,77.148
1644358121.743,34.180,28.809,35.156,59.570,80.078
1644358121.747,43.945,23.438,37.598,60.059,46.875
1644358121.751,32.715,13.184,34.180,53.223,44.434
1644358121.755,18.066,19.531,31.250,54.688,62.500
1644358121.756,39.551,22.461,28.809,71.289,82.031
1644358121.760,22.461,30.273,28.809,65.430,76.660
1644358121.757,13.184,31.250,27.344,58.105,67.871
1644358121.761,26.855,28.320,24.902,62.012,54.199
1644358121.765,34.180,33.203,25.879,66.406,55.176
1644358121.769,24.414,36.621,23.438,61.035,34.668
1644358121.773,16.602,33.691,19.531,56.152,46.387
1644358121.777,26.367,26.367,23.926,58.594,43.945
1644358121.781,37.109,15.625,32.227,64.453,23.926
1644358121.784,34.180,14.160,35.156,67.383,6.348
1644358121.788,19.043,27.344,31.738,56.641,-19.531
1644358121.792,21.973,32.227,28.809,55.664,48.828
1644358121.796,34.180,30.273,22.949,62.988,92.773
1644358121.800,29.785,31.250,21.484,61.035,86.426
1644358121.817,15.625,30.273,27.832,53.223,67.871
1644358121.821,15.137,21.484,24.902,50.781,48.340
1644358121.825,35.645,18.555,27.832,60.059,28.809
1644358121.829,44.922,25.391,29.785,60.059,37.598
1644358121.833,22.949,37.109,28.809,44.922,76.172
1644358121.837,5.371,36.621,32.715,38.574,32.715
1644358121.841,16.113,27.832,31.250,45.410,24.902
1644358121.844,26.367,29.785,32.715,48.340,55.664
1644358121.848,13.184,29.785,31.250,42.480,53.223
1644358121.852,3.906,22.949,25.879,43.945,45.410
1644358121.856,13.672,27.344,28.320,54.199,74.219
1644358121.860,25.391,27.832,32.715,56.152,30.762
1644358121.849,24.902,23.926,26.855,53.223,35.645
1644358121.853,4.395,26.367,21.484,47.363,48.340
1644358121.857,5.859,25.391,28.809,44.922,56.152
1644358121.861,23.438,25.879,31.250,49.805,138.672
1644358121.865,26.855,30.273,31.738,49.805,96.191
1644358121.869,18.555,32.227,30.273,46.387,20.508
1644358121.873,19.043,31.738,22.949,45.898,41.992
1644358121.876,37.598,28.809,22.949,49.316,48.828
1644358121.880,41.016,24.902,24.902,49.805,56.641
1644358121.884,33.203,26.855,26.367,45.898,95.215
1644358121.888,24.902,23.438,31.738,38.574,50.293
1644358121.892,28.320,18.555,31.738,32.227,77.148
1644358121.892,36.621,33.203,27.344,34.180,141.113
1644358121.896,30.273,38.086,26.855,30.273,109.375
1644358121.900,14.160,32.227,28.809,20.020,116.699
1644358121.904,13.672,28.809,32.227,21.484,100.098
1644358121.908,25.391,26.855,29.785,30.273,121.094
1644358121.912,22.949,26.855,26.855,21.484,88.379
1644358121.916,8.301,28.809,24.902,4.395,10.742
1644358121.919,4.883,27.344,27.344,1.953,43.457
1644358121.923,16.113,25.391,37.109,8.301,78.125
1644358121.927,24.414,25.391,35.645,10.742,66.406
1644358121.931,18.555,27.344,31.250,4.395,36.621
1644358121.935,12.207,29.785,33.203,-3.906,65.918
1644358122.013,20.996,28.809,32.227,-1.953,98.633
1644358122.017,25.391,29.785,31.738,-3.418,-14.160
1644358122.021,16.602,31.250,31.250,-17.578,-60.059
1644358122.025,5.859,28.809,27.344,-21.973,-24.902
1644358122.029,15.137,20.508,25.879,-16.113,-46.387
1644358122.033,25.879,28.320,32.227,-13.184,-49.805
1644358122.037,15.137,38.086,32.715,-15.137,68.359
1644358122.040,2.441,34.180,27.344,-20.020,124.512
1644358122.044,13.184,34.668,26.367,-17.090,18.555
1644358122.048,34.668,36.133,23.438,-8.301,12.207
1644358122.052,31.738,37.109,20.508,-7.324,57.129
1644358122.056,16.113,36.133,22.949,-12.695,17.578
1644358122.016,18.555,32.227,20.508,-12.695,-0.977
1644358122.020,28.320,32.227,21.973,-9.766,-0.488
1644358122.024,29.785,34.668,28.320,-3.418,50.293
1644358122.028,20.996,34.668,28.809,-5.371,42.969
1644358122.032,8.301,36.621,20.020,-11.230,-5.859
1644358122.036,17.090,27.832,15.137,-3.418,-20.508
1644358122.040,23.926,21.484,23.926,7.812,26.855
1644358122.043,13.184,30.273,29.297,2.930,83.008
1644358122.047,6.836,32.227,30.273,1.953,47.852
1644358122.051,14.648,31.738,31.738,12.207,32.227
1644358122.055,19.043,35.156,30.762,20.996,41.992
1644358122.059,18.066,31.738,30.762,23.438,50.293
1644358122.102,8.789,34.668,31.738,22.461,64.453
1644358122.106,6.348,32.227,29.297,27.832,61.035
1644358122.110,20.508,22.949,30.273,37.598,68.848
1644358122.114,26.367,30.273,29.297,39.551,38.574
1644358122.118,13.672,39.062,32.715,34.668,8.301
1644358122.122,8.789,34.180,39.062,35.645,61.523
1644358122.126,27.344,29.297,34.180,48.340,49.316
1644358122.129,35.645,31.250,32.227,55.176,51.270
1644358122.133,20.996,27.344,35.156,55.664,41.016
1644358122.137,10.742,29.297,32.715,53.223,18.555
1644358122.141,24.902,37.109,24.902,51.758,47.363
1644358122.145,37.109,35.645,26.367,60.059,120.117
1644358122.107,32.227,28.809,32.227,56.641,165.527
1644358122.111,20.020,30.762,32.227,41.992,148.926
1644358122.115,26.855,34.180,31.738,40.039,164.551
1644358122.119,39.062,32.715,31.738,51.270,234.863
1644358122.123,35.645,33.203,31.250,55.664,273.438
1644358122.127,17.578,29.785,32.715,49.805,256.348
1644358122.131,20.020,29.785,33.691,51.270,257.812
1644358122.134,33.203,30.273,34.180,52.246,312.012
1644358122.138,34.180,27.832,31.250,49.805,315.918
1644358122.142,22.461,32.227,31.738,46.387,297.852
1644358122.146,18.066,32.715,39.062,33.203,276.855
1644358122.150,33.691,25.391,39.062,29.785,264.648
1644358122.132,41.016,17.090,33.691,31.738,248.047
1644358122.136,34.180,32.227,32.227,20.508,194.336
1644358122.140,23.438,43.945,33.691,13.184,143.555
1644358122.144,34.180,40.039,31.738,16.602,109.375
1644358122.148,48.828,37.109,25.879,20.020,106.934
1644358122.152,41.016,34.180,23.438,19.531,109.375
1644358122.156,26.855,31.250,26.367,18.066,73.242
1644358122.159,29.785,28.809,29.297,21.484,37.598
1644358122.163,38.086,31.738,30.762,28.320,92.773
1644358122.167,37.109,35.645,31.738,33.691,120.117
1644358122.171,19.531,36.133,34.180,30.273,86.426
1644358122.175,11.719,34.668,35.156,20.996,84.961
1644358122.177,24.414,32.715,30.762,21.484,106.445
1644358122.181,28.320,25.391,26.855,21.484,114.746
1644358122.185,18.555,23.926,30.273,17.090,116.699
1644358122.189,11.230,33.691,30.273,17.090,129.395
1644358122.193,23.926,33.691,26.855,23.438,147.949
1644358122.197,31.250,28.809,31.738,33.203,203.125
1644358122.201,20.020,29.297,34.180,29.785,212.891
1644358122.204,18.555,25.879,34.668,22.949,165.527
1644358122.208,29.297,25.879,37.109,28.320,180.176
1644358122.212,37.598,30.762,34.668,37.109,245.117
1644358122.216,38.086,31.738,25.879,37.109,257.812
1644358122.220,20.996,24.902,27.832,28.809,220.215
1644358122.223,22.461,19.043,38.574,31.738,199.707
1644358122.227,36.621,25.879,39.551,39.062,274.902
1644358122.231,36.133,36.621,35.645,36.133,301.758
1644358122.235,21.484,39.062,29.785,28.320,250.977
1644358122.239,19.043,32.227,26.855,23.438,244.629
1644358122.243,28.809,27.832,21.484,29.297,283.691
1644358122.247,28.809,23.926,15.137,29.785,288.086
1644358122.250,19.531,28.320,23.926,22.949,241.699
1644358122.254,13.672,31.250,30.762,22.461,250.000
1644358122.258,28.809,27.832,26.855,26.855,278.809
1644358122.262,34.668,23.926,24.902,32.715,307.617
1644358122.266,23.926,24.414,26.367,30.273,317.383
1644358122.267,13.672,30.762,25.879,21.484,290.527
1644358122.271,22.461,30.762,23.926,22.949,261.719
1644358122.275,33.691,27.344,23.926,31.250,296.387
1644358122.279,29.785,29.785,25.391,30.273,299.805
1644358122.283,18.066,33.203,27.344,23.438,246.094
1644358122.287,17.090,29.785,29.297,22.949,233.398
1644358122.291,29.297,25.391,24.902,23.438,218.262
1644358122.294,33.691,30.273,19.531,22.461,225.098
1644358122.298,22.949,21.484,21.484,19.043,237.793
1644358122.302,22.461,11.230,28.809,19.043,204.102
1644358122.306,32.227,28.809,31.738,27.344,227.051
1644358122.310,32.227,39.551,30.762,29.785,248.535
1644358122.387,23.438,37.598,32.227,23.438,214.844
1644358122.391,17.090,35.645,28.320,21.484,179.199
1644358122.395,26.367,33.691,28.809,24.902,194.336
1644358122.399,39.062,33.691,33.691,27.344,200.195
1644358122.403,32.227,32.227,31.250,27.832,194.336
1644358122.407,13.672,29.297,30.762,23.926,161.133
1644358122.411,25.879,28.320,31.738,21.484,137.207
1644358122.414,47.852,27.832,30.762,28.320,170.898
1644358122.418,41.016,30.762,31.738,30.273,213.867
1644358122.422,17.090,29.785,28.320,22.949,208.008
1644358122.426,19.043,23.926,23.438,23.926,157.227
1644358122.430,30.762,21.484,24.414,29.297,194.336
1644358122.391,22.949,19.531,28.809,25.879,218.262
1644358122.395,10.254,29.785,25.391,18.555,204.102
1644358122.399,5.371,40.039,15.625,15.137,174.805
1644358122.403,20.508,35.645,21.973,22.461,182.617
1644358122.407,29.297,30.762,38.086,26.855,218.750
1644358122.411,16.602,29.297,39.062,18.555,197.266
1644358122.415,4.883,31.738,36.621,15.137,156.738
1644358122.418,10.742,26.855,33.691,18.555,154.785
1644358122.422,20.020,19.043,33.203,21.973,155.273
1644358122.426,17.090,21.484,31.738,21.484,170.898
1644358122.430,3.418,28.809,25.879,14.648,171.875
1644358122.434,16.113,28.320,24.414,16.602,148.926
1644358122.418,34.180,24.414,30.762,27.832,168.457
1644358122.422,23.438,29.297,31.738,25.391,157.715
1644358122.426,12.207,35.156,28.320,14.160,152.832
1644358122.430,13.672,29.785,27.344,13.184,152.344
1644358122.434,23.926,23.926,24.414,21.484,125.000
1644358122.438,30.762,26.855,22.949,26.855,124.512
1644358122.442,21.973,23.438,25.391,23.926,125.488
1644358122.445,16.602,13.672,26.367,21.484,105.469
1644358122.449,32.227,25.391,24.902,25.391,115.723
1644358122.453,38.086,36.133,29.297,30.273,132.812
1644358122.457,33.203,35.156,31.250,26.367,121.582
1644358122.461,23.926,30.273,29.785,20.020,108.887
1644358122.479,26.367,25.391,28.320,15.625,83.008
1644358122.483,33.691,29.297,26.855,7.812,50.293
1644358122.487,21.484,32.227,25.879,2.441,30.762
1644358122.491,8.301,27.344,25.879,4.395,-9.766
1644358122.495,11.719,22.461,27.344,13.184,-20.508
1644358122.499,21.973,27.344,26.367,20.020,26.855
1644358122.503,21.484,31.738,28.809,18.066,15.625
1644358122.506,12.207,28.320,31.250,10.254,-53.711
1644358122.510,9.277,26.855,19.531,11.230,-112.793
1644358122.514,20.020,25.879,17.578,21.484,-96.680
1644358122.518,32.227,25.879,31.250,26.855,-29.297
1644358122.522,17.090,30.273,31.250,13.184,-55.664
1644358122.568,7.812,27.832,32.227,9.766,-90.332
1644358122.572,27.344,23.926,28.809,20.020,-77.148
1644358122.576,33.691,27.832,18.555,21.484,-45.410
1644358122.580,26.367,20.996,27.832,21.484,-50.781
1644358122.584,11.230,20.508,36.621,17.090,-96.680
1644358122.588,12.695,33.691,33.203,18.555,-92.773
1644358122.592,26.855,35.645,28.809,28.320,-61.523
1644358122.595,26.367,35.645,28.320,27.344,-71.289
1644358122.599,19.531,35.156,25.391,16.602,-94.727
1644358122.603,27.344,28.320,26.367,20.020,-73.730
1644358122.607,34.668,25.391,27.832,33.691,-20.508
1644358122.611,32.715,29.785,20.996,36.133,-19.043
1644358122.572,25.391,26.855,22.461,30.273,-72.754
1644358122.576,21.973,25.879,22.461,24.902,-43.945
1644358122.580,29.785,33.203,22.461,27.832,54.199
1644358122.584,35.645,35.645,28.320,38.574,71.777
1644358122.588,24.414,31.738,28.320,36.621,71.777
1644358122.592,15.137,30.273,29.297,33.203,84.473
1644358122.596,30.762,30.762,26.855,38.086,92.285
1644358122.599,43.945,34.668,22.461,45.898,154.297
1644358122.603,33.691,30.273,24.414,45.410,197.754
1644358122.607,21.484,28.809,23.438,36.133,160.645
1644358122.611,29.297,25.391,27.344,32.715,129.395
1644358122.615,37.598,19.531,34.180,33.203,172.363
1644358122.597,33.691,23.926,25.879,29.785,180.664
1644358122.601,18.066,26.855,20.996,22.461,137.207
1644358122.605,17.090,34.668,27.832,21.973,130.859
1644358122.609,31.250,33.691,27.344,27.344,134.766
1644358122.613,28.809,30.273,27.832,27.344,129.883
1644358122.617,17.578,28.809,31.250,22.461,104.980
1644358122.621,11.230,25.879,30.762,18.555,33.691
1644358122.624,22.461,23.438,29.297,22.461,26.855
1644358122.628,33.203,24.414,26.855,24.414,75.195
1644358122.632,22.949,28.320,22.461,15.137,39.062
1644358122.636,8.301,31.738,25.879,5.859,-49.805
1644358122.640,16.113,30.762,28.320,5.371,-47.852
1644358122.642,29.785,30.273,22.949,6.836,-27.344
1644358122.646,27.832,26.855,20.508,13.184,-55.176
1644358122.650,17.578,24.414,29.297,17.090,-69.336
1644358122.654,24.902,24.414,32.715,22.461,-41.992
1644358122.658,44.434,12.695,25.391,31.250,-29.297
1644358122.662,40.527,22.949,25.879,30.273,-12.695
1644358122.666,18.066,40.039,26.855,19.531,-44.922
1644358122.669,15.625,39.551,24.902,12.207,-61.035
1644358122.673,34.180,36.621,27.832,20.996,-11.230
1644358122.677,37.598,35.156,27.832,26.367,17.578
1644358122.681,21.484,32.227,24.902,22.949,6.836
1644358122.685,9.766,30.762,24.414,21.484,-22.461
1644358122.749,25.391,31.738,25.391,24.902,-12.207
1644358122.753,35.156,29.297,25.879,29.297,41.504
1644358122.757,27.832,24.414,24.902,25.879,48.828
1644358122.761,17.090,25.879,28.320,24.414,20.020
1644358122.765,22.949,32.715,27.344,28.809,29.785
1644358122.769,35.645,34.180,20.020,34.668,71.289
1644358122.773,37.598,33.203,24.414,34.180,66.895
1644358122.776,22.461,30.762,36.133,25.879,45.410
1644358122.780,17.090,27.832,37.598,24.902,59.082
1644358122.784,31.738,27.832,33.691,32.715,89.355
1644358122.788,31.250,30.273,31.250,32.227,94.238
1644358122.792,16.113,21.973,31.250,26.855,45.898
1644358122.753,14.160,21.484,29.297,19.043,28.809
1644358122.757,28.320,30.762,25.879,18.555,73.242
1644358122.761,32.715,28.809,26.855,23.926,100.098
1644358122.765,24.414,32.227,25.879,20.508,110.840
1644358122.769,15.625,32.715,25.879,16.113,75.195
1644358122.773,22.461,29.297,25.879,20.996,57.129
1644358122.777,37.109,28.320,25.391,31.250,101.562
1644358122.780,25.391,26.855,27.344,28.320,103.516
1644358122.784,8.789,25.391,24.902,21.484,44.922
1644358122.788,20.020,23.438,20.508,25.391,0.488
1644358122.792,25.879,25.879,21.484,30.762,45.410
1644358122.796,24.902,27.344,23.438,30.273,100.098
1644358122.838,11.230,29.785,19.531,17.578,52.734
1644358122.842,7.324,35.645,16.602,15.137,51.758
1644358122.846,25.391,27.832,22.949,24.902,115.234
1644358122.850,22.949,20.020,28.809,27.832,123.535
1644358122.854,10.742,20.508,27.832,26.855,76.660
1644358122.858,7.324,16.113,29.297,24.902,46.387
1644358122.862,25.879,26.367,29.297,30.273,68.359
1644358122.865,33.203,32.715,23.438,35.156,93.262
1644358122.869,19.531,32.227,26.367,26.855,65.918
1644358122.873,14.648,32.715,26.855,18.555,23.438
1644358122.877,27.344,28.320,23.438,18.555,17.578
1644358122.881,43.457,28.809,28.320,25.391,63.965
1644358122.842,35.156,31.250,29.785,25.879,82.031
1644358122.846,14.160,28.809,27.344,20.996,52.246
1644358122.850,25.391,29.785,25.391,28.809,80.566
1644358122.854,40.039,27.344,18.555,41.992,119.629
1644358122.858,31.250,20.996,22.949,42.969,104.492
1644358122.862,20.508,31.738,32.227,33.203,58.594
1644358122.866,20.996,37.109,31.250,35.156,51.270
1644358122.869,29.785,31.738,29.785,41.016,68.848
1644358122.873,34.180,33.691,26.855,41.504,93.750
1644358122.877,18.066,33.691,28.320,34.180,66.406
1644358122.881,6.348,28.809,28.320,23.926,44.434
1644358122.885,15.625,31.738,26.367,28.809,70.312
1644358122.883,18.555,33.691,27.832,32.715,93.262
1644358122.887,16.602,33.691,28.320,23.926,63.965
1644358122.891,16.113,36.621,27.344,18.555,43.457
1644358122.895,24.902,22.949,20.508,23.438,59.082
1644358122.899,30.273,22.461,20.020,25.879,75.684
1644358122.903,24.414,39.062,27.344,17.090,81.055
1644358122.907,10.254,40.527,29.785,6.836,24.414
1644358122.910,15.625,37.598,27.344,8.789,4.395
1644358122.914,30.273,33.203,29.785,14.648,11.719
1644358122.918,25.391,33.203,33.203,14.160,0.488
1644358122.922,16.113,34.180,30.273,8.789,-9.766
1644358122.926,15.137,32.227,25.391,8.789,-25.391
1644358122.928,26.367,32.227,31.250,17.578,14.648
1644358122.932,28.320,31.738,37.109,20.996,26.855
1644358122.936,12.695,26.855,34.180,19.531,5.859
1644358122.940,5.371,22.461,31.250,15.625,-8.789
1644358122.944,16.602,26.855,29.785,20.508,-22.461
1644358122.948,30.273,29.297,29.785,30.762,-6.348
1644358122.952,23.926,24.414,32.715,23.438,-29.297
1644358122.955,11.719,28.320,32.227,9.766,-81.055
1644358122.959,20.996,32.227,27.344,7.812,-91.797
1644358122.963,36.133,28.809,23.438,19.043,-14.160
1644358122.967,27.832,33.203,24.414,17.578,7.324
1644358122.971,12.695,37.109,30.273,6.836,-55.664
1644358122.988,16.113,33.691,33.691,10.254,-69.824
1644358122.992,29.297,34.668,24.902,17.090,-27.832
1644358122.996,28.809,32.715,15.137,18.066,-23.926
1644358123.000,23.926,30.273,21.973,20.020,-72.754
1644358123.004,27.832,25.391,32.715,13.672,-86.426
1644358123.008,30.762,28.320,35.156,15.625,-38.574
1644358123.012,35.156,40.527,29.785,25.391,-35.156
1644358123.015,15.625,37.109,27.344,16.113,-59.570
1644358123.019,0.488,30.273,28.320,10.254,-53.711
1644358123.023,18.555,36.133,26.367,18.555,-21.973
1644358123.027,36.621,39.062,23.438,20.508,-14.160
1644358123.031,33.203,35.645,26.367,16.602,-38.086
1644358123.032,13.672,34.668,23.926,13.672,-62.988
1644358123.036,23.926,31.738,20.996,17.578,-28.320
1644358123.040,40.527,28.320,25.879,24.902,-3.906
1644358123.044,36.133,26.855,26.855,22.949,-18.555
1644358123.048,28.809,28.809,26.855,18.066,-23.926
1644358123.052,29.785,28.320,30.273,23.438,-16.113
1644358123.056,46.387,27.832,34.668,37.598,9.277
1644358123.059,49.316,30.273,38.086,41.504,23.438
1644358123.063,33.203,29.785,36.621,36.133,20.508
1644358123.067,32.715,24.902,30.762,32.227,13.672
1644358123.071,46.875,25.391,28.320,37.109,-7.812
1644358123.075,50.293,28.320,29.785,38.574,4.395
1644358123.062,36.621,27.832,29.297,36.133,62.500
1644358123.066,23.438,18.066,27.344,35.645,21.484
1644358123.070,31.738,20.508,28.809,41.992,25.879
1644358123.074,41.504,28.320,29.785,48.828,96.191
1644358123.078,35.645,25.391,20.996,48.340,102.539
1644358123.082,22.949,26.855,22.949,44.922,68.848
1644358123.086,28.320,26.855,33.203,45.898,52.734
1644358123.089,44.922,27.344,26.855,51.758,64.941
1644358123.093,46.875,24.414,24.902,50.781,96.680
1644358123.097,22.949,24.414,33.691,35.156,55.176
1644358123.101,16.113,27.832,31.738,30.273,-10.254
1644358123.105,33.203,29.785,25.879,36.621,67.383
1644358123.138,34.668,31.738,30.273,36.133,104.492
1644358123.142,19.043,31.250,30.762,21.973,42.969
1644358123.146,10.742,31.738,27.832,14.160,13.184
1644358123.150,24.902,30.273,26.855,24.902,17.578
1644358123.154,35.645,26.855,24.902,25.879,40.039
1644358123.158,22.949,30.762,20.508,15.625,0.000
1644358123.162,5.859,34.180,20.996,11.230,-48.340
1644358123.165,18.066,35.645,24.414,12.207,-21.973
1644358123.169,32.715,32.227,29.297,18.555,-12.207
1644358123.173,25.391,24.414,30.762,16.113,-20.996
1644358123.177,7.812,25.391,25.391,7.812,-42.969
1644358123.181,11.719,28.320,28.320,13.672,-39.551
1644358123.199,27.344,29.297,33.691,21.973,-18.555
1644358123.203,31.250,26.855,30.273,15.137,-30.762
1644358123.207,19.531,20.508,25.391,6.836,-57.617
1644358123.211,9.766,27.344,24.902,9.277,-49.316
1644358123.215,32.227,33.203,28.320,20.020,-30.273
1644358123.219,44.922,31.250,23.926,26.855,-17.090
1644358123.223,24.414,33.203,23.926,20.508,-14.648
1644358123.226,12.207,33.203,29.785,20.020,-30.762
1644358123.230,26.367,29.785,25.391,28.320,-16.113
1644358123.234,37.598,28.320,22.461,31.738,19.531
1644358123.238,29.297,26.367,30.273,23.438,25.879
1644358123.242,17.090,21.484,27.832,17.578,-9.766
1644358123.242,20.508,19.531,24.414,23.438,-24.902
1644358123.246,29.297,24.902,30.762,29.297,-6.836
1644358123.250,21.484,28.809,30.273,25.879,20.020
1644358123.254,9.766,28.320,26.855,20.508,5.859
1644358123.258,12.207,23.926,29.785,19.531,-1.953
1644358123.262,22.461,26.855,31.738,25.391,18.066
1644358123.266,24.902,31.250,26.855,27.832,30.273
1644358123.269,8.789,30.762,26.367,21.973,16.113
1644358123.273,10.254,29.785,28.809,21.484,-19.043
1644358123.277,32.227,32.715,23.926,29.785,2.441
1644358123.281,37.598,30.273,22.461,36.621,50.293
1644358123.285,27.344,20.508,26.855,33.691,33.691
1644358123.258,19.531,28.809,23.926,26.855,-23.926
1644358123.262,27.344,36.621,19.531,27.344,10.254
1644358123.266,35.645,40.039,22.949,34.668,59.570
1644358123.270,28.809,45.898,20.508,28.320,40.039
1644358123.274,14.160,43.945,17.090,12.695,-20.020
1644358123.278,20.508,36.133,23.438,14.160,-27.832
1644358123.282,34.668,32.227,25.391,19.531,20.508
1644358123.285,32.227,36.621,21.973,18.555,27.832
1644358123.289,19.043,37.598,19.531,15.137,12.695
1644358123.293,22.949,28.809,18.555,19.531,24.414
1644358123.297,40.527,27.344,23.438,29.297,70.801
1644358123.301,37.109,35.645,25.391,29.297,53.223
1644358123.303,24.414,35.645,24.414,22.461,25.391
1644358123.307,19.531,28.809,21.484,19.043,20.996
1644358123.311,26.855,25.879,16.113,24.414,24.414
1644358123.315,29.785,26.367,23.926,25.879,36.621
1644358123.319,15.625,30.762,29.785,12.207,1.953
1644358123.323,2.930,30.273,27.344,8.301,-4.395
1644358123.327,17.090,28.809,23.926,18.555,2.930
1644358123.330,30.762,28.809,28.809,20.020,1.465
1644358123.334,21.973,28.320,36.133,15.625,7.324
1644358123.338,4.395,28.320,33.691,13.184,-11.230
1644358123.342,9.277,20.020,30.273,17.578,-20.996
1644358123.346,27.344,22.949,29.297,25.879,20.020
1644358123.347,27.344,33.691,24.414,26.855,50.781
1644358123.351,12.207,35.156,27.832,23.926,9.277
1644358123.355,15.625,33.203,35.645,22.461,-25.391
1644358123.359,31.250,32.715,31.738,28.320,3.418
1644358123.363,33.691,26.855,32.227,32.715,36.621
1644358123.367,23.438,23.438,33.203,26.855,11.719
1644358123.371,19.531,28.320,32.227,22.461,-10.742
1644358123.374,34.668,27.344,34.180,26.367,-20.508
1644358123.378,40.039,26.855,30.273,32.227,-1.953
1644358123.382,29.297,31.250,28.320,28.809,22.461
1644358123.386,14.648,34.180,28.320,20.996,-3.418
1644358123.390,20.020,33.203,25.391,24.414,-13.672
1644358123.408,35.156,31.250,30.762,32.227,4.395
1644358123.412,30.273,32.715,35.645,29.785,-5.371
1644358123.416,19.531,33.203,32.715,22.461,-41.504
1644358123.420,22.949,32.715,31.738,23.438,-35.645
1644358123.424,34.180,31.250,31.738,32.715,31.250
1644358123.428,33.203,22.461,33.203,35.156,32.715
1644358123.432,24.414,24.414,29.297,25.391,-66.406
1644358123.435,20.996,36.133,22.461,22.461,-88.867
1644358123.439,34.668,38.086,24.414,33.691,6.348
1644358123.443,42.480,27.832,25.879,37.109,28.809
1644358123.447,25.879,25.391,23.926,26.367,-10.254
1644358123.451,14.648,37.109,24.902,22.949,-19.531
1644358123.527,26.855,37.598,23.438,30.273,-12.207
1644358123.531,30.762,32.715,22.461,34.668,-14.648
1644358123.535,13.184,29.297,21.484,27.832,-15.625
1644358123.539,0.000,25.391,20.996,20.020,-29.297
1644358123.543,10.254,25.391,29.297,21.484,-27.832
1644358123.547,26.367,24.902,34.668,26.367,-32.227
1644358123.551,25.391,17.578,33.691,31.250,-34.668
1644358123.554,15.137,20.508,30.762,21.973,-51.270
1644358123.558,18.066,32.227,29.297,14.648,-74.707
1644358123.562,35.645,37.109,25.391,24.414,-68.359
1644358123.566,46.875,35.156,22.949,28.809,-64.453
1644358123.570,31.250,30.273,22.461,24.902,-64.453
1644358123.532,26.855,30.273,24.414,27.832,-61.523
1644358123.536,42.969,29.785,27.832,36.133,-32.227
1644358123.540,38.574,29.785,26.367,38.086,-1.953
1644358123.544,20.996,30.273,22.461,31.738,-7.324
1644358123.548,13.184,33.203,18.555,27.832,-61.523
1644358123.552,21.973,25.391,18.555,32.227,-52.246
1644358123.556,30.273,14.648,26.855,34.668,3.906
1644358123.559,19.531,25.391,32.227,29.297,-2.930
1644358123.563,8.301,41.016,31.250,20.508,-26.855
1644358123.567,18.066,40.527,33.691,24.902,-19.531
1644358123.571,31.250,30.273,35.156,31.250,32.227
1644358123.575,29.785,26.855,28.809,27.344,64.941
1644358123.542,12.695,28.809,24.902,19.531,15.137
1644358123.546,10.254,29.297,30.762,13.184,-22.949
1644358123.550,23.438,25.391,30.273,20.996,42.969
1644358123.554,28.809,27.344,26.367,25.391,81.055
1644358123.558,15.137,31.250,28.320,16.113,37.598
1644358123.562,9.766,28.320,22.461,12.207,-11.719
1644358123.566,25.879,27.344,20.996,19.043,18.066
1644358123.569,33.691,21.973,29.297,22.949,58.105
1644358123.573,24.414,21.484,29.785,19.531,29.785
1644358123.577,15.137,32.715,22.949,14.160,-9.766
1644358123.581,21.973,35.645,21.484,17.578,-20.996
1644358123.585,32.715,32.715,26.855,23.438,-21.484
1644358123.618,26.855,31.250,29.297,21.484,-21.973
1644358123.622,9.277,30.762,28.320,14.160,-0.977
1644358123.626,15.625,27.832,27.832,18.066,-11.230
1644358123.630,30.762,28.809,29.297,27.344,3.906
1644358123.634,25.879,27.832,32.227,24.414,26.367
1644358123.638,11.719,20.020,33.203,13.184,-27.832
1644358123.642,13.672,30.273,29.297,7.324,-46.387
1644358123.645,27.832,37.109,29.785,22.461,0.977
1644358123.649,30.762,29.297,35.645,26.367,7.812
1644358123.653,19.043,26.367,30.273,16.602,-24.414
1644358123.657,10.742,24.414,27.344,21.973,-7.812
1644358123.661,20.996,25.391,28.320,25.391,11.230
1644358123.634,30.762,28.320,25.879,27.832,8.789
1644358123.638,20.996,32.227,27.832,25.879,-17.090
1644358123.642,10.254,33.203,30.273,15.625,-38.574
1644358123.646,24.902,26.367,30.273,20.020,-25.879
1644358123.650,40.039,27.344,25.391,28.320,11.719
1644358123.654,35.645,27.344,18.066,24.902,12.207
1644358123.658,23.926,28.320,19.043,20.996,-22.949
1644358123.661,28.809,33.691,31.738,22.461,-34.668
1644358123.665,41.016,29.297,37.109,30.273,-27.344
1644358123.669,42.480,27.832,33.203,33.691,10.254
1644358123.673,30.762,30.762,30.273,23.438,-8.301
1644358123.677,24.414,30.762,28.320,20.508,-61.523
1644358123.677,36.621,32.227,27.344,26.855,-27.832
1644358123.681,41.016,29.297,28.809,30.273,15.625
1644358123.685,28.320,26.367,25.879,24.902,4.883
1644358123.689,18.555,26.367,25.879,16.602,-35.645
1644358123.693,31.250,27.344,30.762,20.508,-42.969
1644358123.697,39.551,25.879,25.391,24.902,14.160
1644358123.701,29.785,19.531,25.391,20.020,28.809
1644358123.704,18.555,24.414,30.273,9.277,-37.598
1644358123.708,25.391,25.391,22.949,7.324,-41.504
1644358123.712,38.574,23.926,20.508,23.438,25.391
1644358123.716,32.227,28.809,26.367,27.832,64.941
1644358123.720,17.090,27.344,31.738,21.973,25.879
1644358123.722,22.949,28.809,31.738,24.414,-9.766
1644358123.726,34.668,30.273,26.855,33.691,15.137
1644358123.730,38.574,31.250,27.832,41.504,47.363
1644358123.734,27.344,29.785,28.809,38.574,8.301
1644358123.738,17.090,27.344,27.832,34.180,-19.531
1644358123.742,29.785,34.668,29.297,38.574,12.695
1644358123.746,35.156,33.691,26.855,40.039,7.324
1644358123.749,23.438,27.832,27.344,22.949,-24.414
1644358123.753,13.184,27.832,23.438,12.695,-21.973
1644358123.757,26.855,28.320,21.484,24.902,-15.137
1644358123.761,40.527,24.902,25.879,32.227,15.137
1644358123.765,30.762,21.973,26.855,26.855,26.367
1644358123.783,18.555,28.809,25.879,23.438,4.395
1644358123.787,29.297,30.762,24.902,25.879,28.320
1644358123.791,41.992,30.762,25.391,30.762,34.180
1644358123.795,30.762,28.320,25.879,26.367,41.992
1644358123.799,16.602,25.391,24.902,20.020,28.320
1644358123.803,23.438,21.973,24.902,28.320,-33.691
1644358123.807,32.715,23.438,27.832,30.762,-33.691
1644358123.810,31.738,36.133,25.391,29.297,2.930
1644358123.814,19.531,39.551,24.902,24.902,-1.953
1644358123.818,17.090,36.133,22.461,19.531,-55.176
1644358123.822,29.785,37.598,16.602,23.926,-40.527
1644358123.826,28.809,33.691,25.391,28.320,19.043
1644358123.887,19.531,27.832,33.691,24.414,11.719
1644358123.891,9.277,29.297,30.273,18.066,-32.227
1644358123.895,18.555,29.297,23.926,20.996,-25.879
1644358123.899,32.227,27.832,24.414,26.367,30.762
1644358123.903,25.879,26.855,27.832,22.949,25.391
1644358123.907,10.254,27.832,28.320,9.766,-25.879
1644358123.911,15.625,30.762,28.320,12.207,-31.738
1644358123.914,30.762,33.203,26.367,23.438,20.020
1644358123.918,28.320,31.738,23.438,20.020,16.602
1644358123.922,14.648,27.344,24.902,14.160,-51.758
1644358123.926,12.207,26.367,28.320,10.742,-58.594
1644358123.930,26.367,27.344,26.367,19.531,15.625
1644358123.934,29.297,28.320,29.297,28.320,30.273
1644358123.938,18.066,26.367,27.832,19.043,0.977
1644358123.942,17.090,21.484,22.461,11.230,-22.461
1644358123.946,25.879,27.832,27.832,16.113,-7.812
1644358123.950,25.879,34.180,27.832,19.531,45.410
1644358123.954,10.742,30.762,25.879,12.207,14.648
1644358123.958,-0.977,25.879,30.273,7.324,-44.922
1644358123.961,13.672,23.438,30.762,17.090,-27.832
1644358123.965,26.855,24.902,28.320,22.949,39.551
1644358123.969,19.531,28.320,26.855,16.113,15.137
1644358123.973,7.812,29.297,22.949,8.301,-38.086
1644358123.977,12.207,23.438,25.391,10.742,7.324
1644358123.948,30.273,21.484,30.273,20.508,27.344
1644358123.952,31.738,26.855,28.320,22.461,3.906
1644358123.956,13.672,25.879,28.320,15.625,-7.324
1644358123.960,6.836,24.414,29.297,19.043,-25.391
1644358123.964,21.484,17.090,26.367,25.391,-27.832
1644358123.968,30.273,11.719,25.879,20.020,12.695
1644358123.972,19.531,27.832,28.809,12.207,23.926
1644358123.975,11.230,40.527,26.367,9.766,-38.574
1644358123.979,24.414,35.156,22.461,17.090,-38.086
1644358123.983,35.645,29.785,23.438,25.391,1.953
1644358123.987,24.902,26.855,25.391,21.484,-1.465
1644358123.991,13.184,28.320,24.414,14.160,-22.949
1644358124.041,24.414,33.203,22.949,16.602,-45.898
1644358124.045,37.109,29.785,29.785,24.902,-40.527
1644358124.049,34.180,26.367,33.203,28.809,1.465
1644358124.053,20.508,27.832,33.203,25.391,15.137
1644358124.057,20.508,25.391,32.227,27.344,5.371
1644358124.061,32.227,22.949,27.344,34.180,18.555
1644358124.065,35.645,30.762,29.297,34.668,19.531
1644358124.068,19.043,30.273,31.738,29.297,-29.297
1644358124.072,13.184,25.879,31.738,25.879,-43.457
1644358124.076,30.273,32.227,27.344,33.203,10.742
1644358124.080,33.691,36.133,25.391,36.621,31.738
1644358124.084,22.949,35.156,24.414,31.738,25.391
1644358124.046,16.602,31.738,23.926,29.785,-18.555
1644358124.050,23.926,24.902,24.902,29.785,-4.883
1644358124.054,33.203,25.879,24.414,32.715,64.941
1644358124.058,20.996,28.320,33.691,27.832,59.082
1644358124.062,10.254,24.414,36.621,23.438,-0.977
1644358124.066,31.250,17.090,31.250,35.645,-31.738
1644358124.070,45.410,29.297,26.855,36.621,22.949
1644358124.073,34.180,41.016,24.902,24.414,19.043
1644358124.077,19.043,35.156,25.879,18.066,-13.184
1644358124.081,19.531,32.715,28.320,21.484,-14.648
1644358124.085,27.832,28.320,31.250,28.320,-24.414
1644358124.089,25.391,32.227,34.668,27.832,5.859
1644358124.055,13.184,36.133,33.691,24.902,-19.043
1644358124.059,10.254,30.762,29.785,21.484,-39.551
1644358124.063,27.344,31.738,25.879,22.949,-0.977
1644358124.067,36.133,28.809,26.367,25.879,25.879
1644358124.071,30.273,23.438,32.227,19.531,-10.742
1644358124.075,15.625,23.438,30.273,11.230,-42.969
1644358124.079,17.578,26.855,27.832,14.160,-23.438
1644358124.082,25.879,29.297,28.809,24.902,18.066
1644358124.086,19.043,27.832,26.855,23.438,51.758
1644358124.090,9.277,29.297,26.367,15.625,-5.371
1644358124.094,20.508,27.832,28.320,19.531,-40.039
1644358124.098,35.645,23.926,27.344,26.855,-9.277
1644358124.157,35.156,21.973,24.902,24.902,5.859
1644358124.161,23.926,24.902,24.902,23.438,-44.434
1644358124.165,22.949,28.809,33.691,28.809,-54.688
1644358124.169,35.156,27.344,32.227,34.180,-6.348
1644358124.173,39.062,28.320,30.762,33.691,3.906
1644358124.177,27.832,28.320,36.621,30.273,-14.648
1644358124.181,14.648,26.855,34.180,31.738,-6.348
1644358124.184,22.461,24.414,32.227,33.203,-3.418
1644358124.188,36.621,23.926,33.691,40.527,43.457
1644358124.192,26.855,30.762,34.668,43.457,69.824
1644358124.196,10.742,25.391,29.297,31.738,20.996
1644358124.200,17.578,17.090,26.367,32.715,-8.789
1644358124.160,34.180,29.785,28.809,43.945,20.020
1644358124.164,28.320,34.180,29.785,39.062,38.574
1644358124.168,11.719,35.156,26.367,29.297,13.672
1644358124.172,19.043,41.016,27.344,29.785,18.066
1644358124.176,32.715,35.645,26.367,35.156,41.016
1644358124.180,37.598,34.180,24.902,37.109,23.926
1644358124.184,27.344,40.039,27.832,30.762,-12.695
1644358124.187,20.020,35.156,22.461,28.320,13.184
1644358124.191,35.156,30.762,16.113,37.598,35.645
1644358124.195,45.410,35.645,23.438,43.945,28.809
1644358124.199,35.156,29.785,29.785,34.668,25.879
1644358124.203,28.809,25.391,27.344,25.879,-3.418
1644358124.192,33.203,31.738,24.414,28.320,22.461
1644358124.196,34.668,31.738,25.391,34.668,44.434
1644358124.200,27.344,27.344,25.391,27.832,1.953
1644358124.204,16.113,29.785,25.391,17.578,-20.020
1644358124.208,18.555,31.250,29.785,20.508,4.883
1644358124.212,27.832,28.320,32.715,25.879,29.297
1644358124.216,23.438,27.832,30.762,25.391,5.859
1644358124.219,9.277,27.344,30.762,19.043,-13.672
1644358124.223,13.184,27.832,31.738,17.090,-18.066
1644358124.227,29.785,29.785,28.809,23.926,-0.977
1644358124.231,33.691,33.203,28.320,24.414,9.766
1644358124.235,20.020,20.996,28.320,18.555,-5.371
1644358124.292,15.137,16.602,31.250,22.461,5.371
1644358124.296,34.180,32.227,36.133,31.738,38.086
1644358124.300,39.062,33.203,35.156,30.273,53.711
1644358124.304,27.832,27.344,34.668,22.949,15.137
1644358124.308,20.020,35.156,35.645,20.996,4.395
1644358124.312,23.438,35.645,30.762,20.996,12.207
1644358124.316,33.691,27.344,30.273,14.160,13.184
1644358124.319,23.926,27.344,34.180,11.719,3.906
1644358124.323,9.766,28.320,28.320,14.648,-18.066
1644358124.327,21.973,26.855,24.902,21.484,-6.348
1644358124.331,33.691,25.391,29.297,27.832,34.180
1644358124.335,34.180,27.344,29.785,28.320,54.199
1644358124.297,21.484,30.273,28.809,20.508,11.230
1644358124.301,21.484,28.809,28.809,16.113,-9.277
1644358124.305,37.109,25.391,28.320,26.367,27.344
1644358124.309,36.133,24.902,31.250,32.715,46.875
1644358124.313,22.461,34.180,26.367,27.344,31.250
1644358124.317,20.996,35.645,23.926,19.043,-23.438
1644358124.321,34.180,26.367,26.855,22.461,-19.531
1644358124.324,37.109,26.855,21.484,33.203,26.855
1644358124.328,31.250,30.273,23.926,32.227,13.672
1644358124.332,24.902,32.227,31.250,24.902,-11.719
1644358124.336,34.180,29.297,30.762,26.855,19.043
1644358124.340,41.992,21.484,28.809,31.250,56.152
1644358124.337,33.691,29.297,24.902,26.855,33.691
1644358124.341,17.090,39.062,21.973,16.602,-22.949
1644358124.345,16.602,35.156,25.391,15.625,-8.301
1644358124.349,29.297,32.227,28.809,24.414,46.875
1644358124.353,27.832,35.645,23.438,25.391,29.297
1644358124.357,13.672,32.227,21.973,19.043,-29.297
1644358124.361,15.625,25.391,30.762,19.043,-54.199
1644358124.364,31.250,30.273,30.762,27.344,-20.996
1644358124.368,31.250,35.156,28.320,27.344,38.086
1644358124.372,20.508,31.738,34.180,16.113,5.371
1644358124.376,12.207,29.785,30.762,15.137,-26.855
1644358124.380,20.020,22.461,26.855,24.414,10.254
1644358124.382,25.391,21.484,28.809,26.367,21.484
1644358124.386,18.066,25.879,24.414,19.043,27.832
1644358124.390,7.812,25.879,22.461,13.184,0.977
1644358124.394,11.230,26.855,21.973,16.113,0.000
1644358124.398,19.531,27.832,22.949,19.531,39.062
1644358124.402,18.066,30.762,22.949,19.043,29.785
1644358124.406,5.371,30.762,19.531,15.625,-7.812
1644358124.409,9.277,28.809,20.996,14.648,-13.672
1644358124.413,21.973,25.879,27.832,18.555,9.766
1644358124.417,17.578,24.414,30.273,22.461,41.016
1644358124.421,4.883,35.156,30.762,19.531,21.973
1644358124.425,8.301,36.133,26.367,16.602,-11.230
1644358124.428,30.273,33.203,24.414,21.973,-12.207
1644358124.432,32.715,30.762,26.855,27.344,41.992
1644358124.436,19.043,28.320,24.414,21.973,53.223
1644358124.440,17.578,29.785,28.809,17.578,18.555
1644358124.444,30.762,26.367,31.250,22.949,21.973
1644358124.448,37.109,26.855,28.809,28.809,66.406
1644358124.452,31.250,28.809,25.391,29.297,54.688
1644358124.455,19.531,25.879,25.879,19.043,-10.742
1644358124.459,23.438,31.738,32.227,20.020,-5.371
1644358124.463,34.668,37.598,29.785,31.738,40.039
1644358124.467,28.809,33.691,24.902,33.203,37.109
1644358124.471,15.137,27.344,27.344,28.809,12.695
1644358124.472,20.020,26.367,31.738,31.250,-15.625
1644358124.476,34.668,28.809,31.738,40.039,29.297
1644358124.480,38.086,29.785,33.203,36.621,53.711
1644358124.484,30.762,33.203,33.691,28.809,-36.621
1644358124.488,30.762,32.715,29.297,28.809,-62.988
1644358124.492,41.504,25.391,21.484,32.227,0.977
1644358124.496,47.363,28.809,17.578,27.832,18.555
1644358124.499,36.621,21.973,24.414,13.184,-11.230
1644358124.503,22.949,17.090,27.832,13.672,-41.016
1644358124.507,33.203,35.645,23.926,24.902,-15.625
1644358124.511,43.945,39.551,24.414,28.320,2.930
1644358124.515,32.715,31.738,26.367,23.438,-26.855
1644358124.532,14.648,34.668,27.832,14.160,-33.691
1644358124.536,17.090,38.086,26.855,16.113,4.883
1644358124.540,27.344,31.738,17.578,26.367,38.574
1644358124.544,27.832,26.367,13.672,21.484,34.180
1644358124.548,15.625,28.320,26.367,10.742,23.926
1644358124.552,16.602,28.320,33.691,14.160,-3.418
1644358124.556,37.109,26.367,33.691,19.043,-6.348
1644358124.559,40.039,26.855,31.738,17.578,18.555
1644358124.563,21.973,26.367,26.855,19.043,20.996
1644358124.567,22.949,18.555,24.902,19.531,-15.625
1644358124.571,33.691,20.508,26.367,22.949,-3.906
1644358124.575,29.785,31.250,25.879,27.344,19.043
1644358124.563,18.555,38.574,27.344,20.996,-9.766
1644358124.567,10.742,36.133,24.902,14.160,-27.344
1644358124.571,19.043,30.273,21.484,19.531,-17.090
1644358124.575,24.902,28.320,27.344,22.461,37.598
1644358124.579,25.391,22.461,29.785,21.973,45.898
1644358124.583,20.020,18.555,26.855,21.484,-22.949
1644358124.587,22.461,28.320,28.320,23.926,-31.250
1644358124.590,37.109,35.645,25.391,35.156,18.066
1644358124.594,29.297,37.109,24.414,37.598,20.020
1644358124.598,10.254,29.785,30.273,23.926,-22.949
1644358124.602,15.137,22.949,28.809,18.066,-42.969
1644358124.606,35.156,28.320,21.973,27.344,-0.977
1644358124.729,38.574,27.344,21.973,34.180,32.715
1644358124.733,22.949,26.855,27.832,28.320,-3.418
1644358124.737,12.207,25.879,29.297,22.461,-24.414
1644358124.741,26.855,24.902,29.785,27.832,16.602
1644358124.745,37.109,27.832,28.809,33.203,41.504
1644358124.749,27.344,29.297,28.809,27.344,21.484
1644358124.753,16.602,26.855,32.227,19.043,-33.203
1644358124.756,23.926,23.926,25.879,23.438,-3.906
1644358124.760,34.668,24.414,23.438,31.738,34.180
1644358124.764,29.297,26.855,29.785,29.297,25.391
1644358124.768,15.137,25.391,35.645,21.973,-5.371
1644358124.772,16.113,27.344,33.691,24.902,18.066
1644358124.732,31.250,31.250,28.320,32.227,48.340
1644358124.736,30.762,29.297,33.203,33.691,16.113
1644358124.740,14.648,26.855,31.738,25.879,-1.953
1644358124.744,9.277,27.832,30.273,17.090,-4.883
1644358124.748,21.973,31.738,31.738,21.484,12.207
1644358124.752,28.320,25.391,32.227,26.367,42.969
1644358124.756,18.066,19.531,33.203,22.461,16.602
1644358124.759,11.230,25.391,30.273,22.461,-15.625
1644358124.763,21.484,26.855,30.762,25.879,-5.859
1644358124.767,27.344,29.297,30.762,30.273,20.020
1644358124.771,17.090,34.180,30.273,27.832,36.621
1644358124.775,4.883,33.691,36.133,20.508,25.391
1644358124.742,17.578,31.738,35.156,24.902,16.602
1644358124.746,34.668,31.738,31.250,34.180,26.855
1644358124.750,33.203,30.762,32.227,35.156,42.480
1644358124.754,20.508,28.320,30.762,29.297,9.766
1644358124.758,19.043,26.855,27.344,28.809,-42.969
1644358124.762,30.273,31.250,27.832,36.133,-6.348
1644358124.766,29.297,33.203,35.156,33.691,40.527
1644358124.769,15.137,31.738,36.621,25.391,-15.137
1644358124.773,15.137,33.691,27.344,21.973,-61.035
1644358124.777,28.320,29.785,27.344,27.344,-25.391
1644358124.781,27.832,20.020,32.227,29.297,25.879
1644358124.785,8.301,27.832,31.738,20.020,6.836
1644358124.757,-0.977,36.621,26.367,12.695,-27.344
1644358124.761,15.625,30.273,25.879,21.484,1.465
1644358124.765,22.949,17.090,31.250,28.320,27.832
1644358124.769,17.578,19.531,31.250,20.508,-2.441
1644358124.773,9.277,34.180,31.250,12.207,-36.133
1644358124.777,13.184,35.645,31.250,9.766,0.977
1644358124.781,22.461,30.762,32.227,17.578,11.719
1644358124.784,19.043,29.785,30.762,20.508,7.812
1644358124.788,6.348,29.785,29.297,16.113,14.648
1644358124.792,10.742,28.320,31.738,18.555,-10.742
1644358124.796,29.785,32.227,33.691,24.902,-3.418
1644358124.800,35.645,32.715,35.645,27.344,20.020
1644358124.802,24.902,34.668,34.668,19.043,-18.555
1644358124.806,17.578,36.621,31.738,9.766,-50.293
1644358124.810,31.250,32.715,25.391,16.602,0.977
1644358124.814,36.133,30.273,23.438,17.090,35.645
1644358124.818,21.484,29.297,26.367,6.836,-16.602
1644358124.822,6.836,27.832,30.273,8.301,-14.648
1644358124.826,12.695,29.785,29.297,17.090,27.832
1644358124.829,25.879,31.250,31.738,16.113,45.898
1644358124.833,22.461,26.367,38.086,12.207,58.594
1644358124.837,9.766,23.926,37.109,11.230,29.785
1644358124.841,14.648,29.785,31.250,12.695,13.672
1644358124.845,30.762,33.203,28.320,21.484,59.082
1644358124.863,30.762,29.785,32.227,22.949,84.961
1644358124.867,18.555,28.809,26.855,18.066,21.973
1644358124.871,20.508,33.691,23.926,15.137,-6.348
1644358124.875,34.668,25.879,30.762,17.090,24.414
1644358124.879,36.621,21.484,33.203,22.949,25.879
1644358124.883,27.344,37.109,31.738,16.602,40.039
1644358124.887,20.508,42.480,26.367,10.254,5.859
1644358124.890,30.273,39.551,24.414,14.160,-2.930
1644358124.894,34.668,37.109,24.902,18.066,48.828
1644358124.898,23.438,32.715,27.344,16.113,19.043
1644358124.902,19.531,34.668,25.879,13.184,-32.227
1644358124.906,24.414,32.715,23.438,16.602,4.883
1644358124.952,30.273,27.344,31.250,24.902,42.480
1644358124.956,28.320,33.691,31.250,28.809,21.484
1644358124.960,15.625,35.156,27.832,21.484,5.371
1644358124.964,20.508,31.738,29.785,23.438,31.250
1644358124.968,37.109,38.086,30.762,28.809,20.020
1644358124.972,37.598,33.691,25.879,27.832,-10.254
1644358124.976,23.926,31.250,23.926,20.020,-14.160
1644358124.979,17.578,31.738,23.926,14.648,-3.906
1644358124.983,30.273,25.391,22.949,23.926,43.457
1644358124.987,34.180,24.902,23.926,29.297,42.480
1644358124.991,20.508,28.809,23.926,20.996,-7.324
1644358124.995,11.719,30.273,23.438,15.137,-43.457
1644358124.957,23.438,24.414,24.414,24.414,0.000
1644358124.961,34.668,22.949,22.949,30.762,27.832
1644358124.965,27.832,29.297,26.367,28.320,-5.859
1644358124.969,16.113,32.227,25.391,23.926,-33.691
1644358124.973,24.414,20.508,18.555,30.273,-15.625
1644358124.977,40.039,20.996,16.113,40.039,-6.348
1644358124.981,39.062,36.133,26.855,39.062,3.418
1644358124.984,21.484,36.133,36.621,32.227,-30.273
1644358124.988,20.020,34.668,34.180,30.762,-56.152
1644358124.992,32.227,31.250,31.250,33.691,8.789
1644358124.996,28.809,30.273,23.438,27.344,16.602
1644358125.000,13.672,33.203,22.461,19.043,-12.695
1644358125.013,6.836,28.809,25.391,15.625,-16.113
1644358125.017,18.555,25.879,27.344,19.043,-33.691
1644358125.021,29.297,25.391,28.320,26.367,-11.719
1644358125.025,20.508,23.438,25.879,23.926,1.953
1644358125.029,11.719,25.391,26.367,18.555,-23.926
1644358125.033,25.391,25.391,24.902,23.438,-15.625
1644358125.037,37.109,20.508,22.949,29.785,-5.371
1644358125.040,24.902,25.391,25.879,27.344,-11.230
1644358125.044,9.277,30.762,25.391,23.438,-2.930
1644358125.048,19.531,26.367,21.484,23.438,-11.719
1644358125.052,30.273,25.879,20.508,21.484,9.277
1644358125.056,26.367,25.879,21.484,19.043,29.297
1644358125.103,13.672,25.391,22.949,22.461,15.137
1644358125.107,12.207,27.832,26.855,25.391,12.695
1644358125.111,27.344,18.555,26.367,27.832,5.859
1644358125.115,37.109,12.207,28.809,29.297,45.898
1644358125.119,22.461,23.438,33.203,21.973,32.227
1644358125.123,8.301,22.949,23.438,17.090,-8.789
1644358125.127,22.949,27.832,16.113,25.391,20.020
1644358125.130,28.320,35.156,25.879,30.762,42.480
1644358125.134,14.648,32.715,33.203,27.344,39.062
1644358125.138,8.301,29.297,34.668,23.926,-13.672
1644358125.142,18.066,26.367,33.203,24.902,8.789
1644358125.146,29.785,25.391,27.832,29.785,83.984
1644358125.108,23.926,27.832,28.809,20.996,52.246
1644358125.112,12.695,29.785,30.762,7.812,6.348
1644358125.116,21.484,29.297,25.391,16.602,43.457
1644358125.120,36.133,25.391,25.391,30.273,48.340
1644358125.124,34.180,24.902,24.902,31.250,30.273
1644358125.128,22.461,29.785,20.508,23.438,0.977
1644358125.132,25.391,21.973,21.973,23.438,-24.902
1644358125.135,39.062,22.461,26.855,35.156,4.395
1644358125.139,39.551,40.039,28.809,37.109,35.156
1644358125.143,26.367,41.992,28.320,24.902,23.926
1644358125.147,19.043,35.156,25.391,18.555,-16.113
1644358125.151,30.762,30.762,25.391,24.414,-5.371
1644358125.148,42.480,31.250,27.344,30.762,9.766
1644358125.152,31.738,31.738,29.297,26.367,-9.277
1644358125.156,18.555,31.738,26.855,20.996,8.789
1644358125.160,31.738,23.926,23.926,24.414,22.461
1644358125.164,44.922,22.461,25.391,31.738,13.672
1644358125.168,33.203,32.227,26.367,27.344,-13.672
1644358125.172,18.555,32.227,26.367,20.020,-35.156
1644358125.175,24.902,23.926,27.344,20.020,-10.742
1644358125.179,33.203,24.902,28.809,26.367,12.695
1644358125.183,25.391,31.738,27.344,27.344,-0.977
1644358125.187,12.207,30.273,26.855,19.043,1.465
1644358125.191,13.672,26.855,23.438,17.090,-22.949
1644358125.177,27.344,25.391,22.461,16.602,-33.691
1644358125.181,26.855,25.879,24.414,13.672,26.855
1644358125.185,10.742,25.879,24.414,12.695,13.184
1644358125.189,0.977,23.438,25.391,15.625,-21.973
1644358125.193,9.277,20.508,27.832,23.926,21.973
1644358125.197,15.625,20.508,26.855,26.855,51.758
1644358125.201,12.695,24.414,28.809,20.020,29.785
1644358125.204,5.859,19.531,29.785,18.555,-11.719
1644358125.208,18.555,11.230,25.879,26.367,-1.465
1644358125.212,35.645,19.043,24.902,31.250,35.156
1644358125.216,35.645,31.250,30.273,34.180,9.277
1644358125.220,20.996,35.645,32.715,23.926,11.230
1644358125.268,19.531,36.133,29.785,16.602,24.414
1644358125.272,35.156,32.227,25.391,29.785,26.855
1644358125.276,34.668,23.926,25.879,34.668,40.527
1644358125.280,18.555,30.273,29.297,27.832,25.879
1644358125.284,16.113,40.039,26.855,23.926,46.387
1644358125.288,27.832,37.598,26.367,31.250,39.551
1644358125.292,30.762,34.180,28.809,35.156,16.113
1644358125.295,19.531,28.809,27.832,26.367,-11.230
1644358125.299,11.230,27.832,24.902,21.484,5.859
1644358125.303,22.461,33.691,18.066,27.832,32.227
1644358125.307,30.762,32.227,21.484,32.715,41.992
1644358125.311,24.902,28.320,31.738,27.832,50.293
1644358125.271,14.648,28.809,30.273,23.926,-5.371
1644358125.275,18.066,25.879,25.391,21.973,-14.648
1644358125.279,24.902,22.949,29.297,24.902,18.555
1644358125.283,23.438,21.973,34.668,27.832,12.207
1644358125.287,11.719,22.461,35.156,20.996,20.996
1644358125.291,5.859,30.273,32.715,15.137,20.996
1644358125.295,17.578,33.691,30.762,19.043,24.902
1644358125.298,20.508,28.809,27.832,18.555,49.316
1644358125.302,5.859,25.879,26.855,11.230,57.129
1644358125.306,5.371,31.250,26.855,7.812,20.996
1644358125.310,21.973,32.227,28.320,15.625,9.766
1644358125.314,29.785,27.344,32.227,26.367,-0.488
1644358125.329,24.902,26.855,30.762,22.949,3.906
1644358125.333,20.020,24.902,31.738,18.555,-4.883
1644358125.337,26.855,22.949,32.227,27.344,-10.742
1644358125.341,36.621,26.367,28.809,33.691,30.273
1644358125.345,29.297,26.367,29.785,27.832,14.160
1644358125.349,17.090,28.320,23.926,19.531,-43.457
1644358125.353,23.926,32.715,22.949,15.137,-51.758
1644358125.356,35.156,24.414,31.250,17.578,4.883
1644358125.360,31.250,23.438,32.715,23.926,24.414
1644358125.364,14.648,33.691,31.250,20.996,31.738
1644358125.368,9.766,37.598,25.391,18.066,56.152
1644358125.372,21.484,41.016,22.949,23.926,49.316
1644358125.373,26.367,38.574,29.297,29.785,59.570
1644358125.377,14.160,35.156,33.691,23.926,36.133
1644358125.381,16.602,26.367,33.691,14.648,40.039
1644358125.385,35.645,27.832,32.227,19.043,63.477
1644358125.389,35.645,36.133,30.762,23.438,22.949
1644358125.393,23.926,33.691,29.785,21.484,17.578
1644358125.397,15.625,31.738,25.391,15.137,40.039
1644358125.400,23.438,25.879,23.438,18.066,71.777
1644358125.404,36.133,25.391,25.391,25.391,76.660
1644358125.408,32.715,34.668,28.809,15.137,77.148
1644358125.412,18.555,35.645,30.762,6.348,25.391
1644358125.416,19.531,34.668,27.344,18.066,-15.137
1644358125.433,31.738,32.227,26.855,29.297,29.297
1644358125.437,31.250,28.320,27.832,29.297,19.531
1644358125.441,22.461,26.855,30.762,21.973,-32.227
1644358125.445,23.438,18.555,31.250,20.020,-16.113
1644358125.449,37.598,22.461,27.832,30.273,17.090
1644358125.453,44.922,35.156,30.762,34.668,31.250
1644358125.457,27.344,36.133,36.621,26.855,13.672
1644358125.460,20.508,29.297,36.621,27.832,-24.902
1644358125.464,38.574,29.297,35.156,36.621,-12.207
1644358125.468,44.434,36.133,31.250,34.180,-2.930
1644358125.472,32.715,32.227,28.320,30.273,26.367
1644358125.476,20.508,25.879,26.855,25.391,41.992
1644358125.478,23.438,28.320,25.879,26.367,28.809
1644358125.482,33.203,25.879,29.785,34.668,44.434
1644358125.486,33.203,19.531,30.762,30.762,60.547
1644358125.490,14.648,22.461,31.250,16.602,70.801
1644358125.494,13.672,28.320,31.250,13.184,68.848
1644358125.498,29.785,31.250,32.227,19.531,62.988
1644358125.502,26.367,29.785,34.180,24.414,58.594
1644358125.505,18.066,28.320,31.250,21.484,23.926
1644358125.509,19.043,31.250,28.320,19.043,0.488
1644358125.513,30.762,38.086,32.715,27.344,8.301
1644358125.517,36.621,35.156,30.762,32.227,11.719
1644358125.521,25.391,28.809,26.855,25.879,-13.672
1644358125.507,15.625,37.109,26.855,20.996,-37.109
1644358125.511,27.832,39.062,22.461,24.902,-8.301
1644358125.515,37.598,29.297,24.414,28.809,48.340
1644358125.519,31.250,19.531,29.297,23.926,29.785
1644358125.523,15.137,27.344,21.484,15.625,16.113
1644358125.527,19.531,37.598,25.391,21.484,27.832
1644358125.531,31.738,34.668,34.668,28.809,37.109
1644358125.534,28.809,30.273,33.203,19.531,4.883
1644358125.538,20.020,28.320,29.297,9.766,-32.715
1644358125.542,14.160,25.879,27.344,10.254,11.230
1644358125.546,20.508,21.973,26.367,18.555,15.137
1644358125.550,26.855,18.555,29.297,21.484,11.230
1644358125.554,16.602,22.949,29.785,15.137,8.789
1644358125.558,10.254,25.879,23.926,20.996,-32.227
1644358125.562,26.367,25.391,24.902,33.203,0.488
1644358125.566,35.645,30.273,31.250,37.109,18.555
1644358125.570,26.367,30.762,32.715,31.738,10.742
1644358125.574,10.742,22.461,28.809,28.320,6.836
1644358125.578,15.625,18.555,30.273,35.156,12.207
1644358125.581,30.762,19.531,29.297,34.668,19.043
1644358125.585,22.949,24.414,28.320,23.926,23.438
1644358125.589,12.695,21.484,29.785,21.484,76.172
1644358125.593,23.926,16.602,29.785,23.438,51.758
1644358125.597,34.180,22.949,29.785,29.785,63.965
1644358125.597,28.809,27.344,31.250,29.297,60.059
1644358125.601,14.160,35.645,35.156,22.461,17.578
1644358125.605,13.184,35.156,32.715,17.578,47.363
1644358125.609,28.320,30.762,23.926,23.438,37.598
1644358125.613,32.715,32.715,21.973,29.785,36.133
1644358125.617,15.625,31.250,26.855,23.438,31.738
1644358125.621,2.930,26.855,28.809,21.484,43.457
1644358125.624,13.184,27.344,27.344,23.438,46.875
1644358125.628,23.438,26.367,27.832,27.344,12.695
1644358125.632,18.555,21.484,27.344,26.855,4.395
1644358125.636,10.254,22.949,31.250,19.043,5.859
1644358125.640,19.043,23.438,32.715,20.508,-3.418
1644358125.687,32.715,25.879,24.902,30.273,-3.418
1644358125.691,26.855,23.926,24.902,28.809,8.789
1644358125.695,13.184,19.531,20.996,22.461,3.906
1644358125.699,15.137,27.344,16.113,23.438,-26.855
1644358125.703,28.320,29.785,24.414,27.344,-0.977
1644358125.707,24.902,34.180,29.785,24.902,47.363
1644358125.711,8.789,31.738,25.879,14.648,17.090
1644358125.714,5.371,17.578,25.879,11.719,49.316
1644358125.718,18.555,26.855,26.855,20.020,83.984
1644358125.722,23.926,36.133,25.879,24.902,34.180
1644358125.726,13.184,30.273,26.367,21.484,41.992
1644358125.730,8.301,28.809,26.855,17.578,40.039
1644358125.692,25.391,30.762,23.438,23.926,58.594
1644358125.696,34.668,30.273,22.949,31.250,41.992
1644358125.700,24.414,27.344,24.902,23.926,5.859
1644358125.704,16.602,30.273,30.273,18.066,13.672
1644358125.708,25.879,37.109,37.109,25.879,-2.441
1644358125.712,41.992,37.109,30.762,34.180,-34.668
1644358125.716,41.016,37.598,29.785,31.738,-32.715
1644358125.719,20.508,35.645,32.227,18.555,-65.430
1644358125.723,19.531,34.668,31.250,16.602,-41.016
1644358125.727,25.391,45.410,33.203,17.578,2.441
1644358125.731,21.973,42.969,36.621,13.672,11.230
1644358125.735,5.371,39.062,36.133,2.441,23.926
1644358125.852,-16.113,49.805,28.809,-16.602,-7.812
1644358125.856,-12.695,55.176,28.809,-22.949,28.320
1644358125.860,-16.602,59.570,34.668,-29.297,105.469
1644358125.864,-48.828,60.059,31.738,-53.711,82.520
1644358125.868,-75.684,58.105,30.762,-71.777,-2.441
1644358125.872,-79.102,58.594,33.691,-80.078,27.832
1644358125.876,-82.520,63.477,36.621,-91.309,46.875
1644358125.879,-103.516,79.590,35.645,-113.770,33.691
1644358125.883,-130.371,85.938,30.273,-138.184,48.828
1644358125.887,-134.277,83.496,24.414,-145.508,-2.930
1644358125.891,-131.348,91.309,29.785,-145.508,3.906
1644358125.895,-146.973,96.680,36.133,-154.297,-1.953
1644358125.857,-171.387,93.750,35.156,-169.922,18.555
1644358125.861,-172.363,82.520,39.551,-176.758,51.758
1644358125.865,-156.738,91.309,35.156,-168.457,50.781
1644358125.869,-145.020,96.680,34.180,-155.762,68.848
1644358125.873,-148.926,83.008,43.945,-153.320,58.105
1644358125.877,-149.414,77.637,38.086,-147.461,15.625
1644358125.881,-117.188,73.730,32.715,-120.117,21.484
1644358125.884,-92.773,68.848,40.527,-92.285,59.082
1644358125.888,-88.379,61.523,41.504,-79.590,14.160
1644358125.892,-80.078,55.176,33.691,-71.289,-7.324
1644358125.896,-52.246,56.152,32.227,-48.340,14.160
1644358125.900,-24.902,47.363,34.668,-22.461,-8.301
1644358125.860,-9.766,37.109,32.715,-5.371,-6.348
1644358125.864,-2.441,34.668,28.809,4.395,29.297
1644358125.868,10.742,27.344,28.320,16.113,14.160
1644358125.872,41.504,22.949,25.391,37.109,-1.465
1644358125.876,59.082,14.160,18.066,48.340,-19.043
1644358125.880,50.781,-1.465,18.066,47.363,-31.738
1644358125.884,55.176,5.371,20.996,55.664,-51.758
1644358125.887,78.613,11.719,19.043,74.707,13.672
1644358125.891,92.773,9.766,13.184,85.449,72.266
1644358125.895,88.379,3.418,17.578,84.473,25.391
1644358125.899,82.520,0.488,19.531,85.938,47.363
1644358125.903,101.074,7.812,15.625,96.191,34.668
1644358125.899,114.746,6.836,15.625,109.375,28.320
1644358125.903,103.516,-2.441,13.184,109.863,46.875
1644358125.907,89.844,-5.859,19.043,103.516,-1.465
1644358125.911,94.727,-6.348,24.902,104.004,8.789
1644358125.915,108.398,-11.230,23.926,107.910,13.184
1644358125.919,104.980,-4.883,23.438,102.539,-6.836
1644358125.923,88.379,3.906,20.996,92.773,21.973
1644358125.926,91.797,2.930,15.625,98.145,32.715
1644358125.930,105.469,2.930,19.043,104.980,6.348
1644358125.934,103.027,5.371,24.414,101.562,39.062
1644358125.938,90.332,4.395,20.996,97.656,58.594
1644358125.942,85.449,-2.441,22.949,89.355,13.184
1644358125.928,97.656,-0.977,25.391,86.914,-5.859
1644358125.932,104.980,3.906,24.414,91.309,5.859
1644358125.936,91.309,1.953,32.227,90.332,-4.883
1644358125.940,83.496,6.836,33.203,88.379,-32.715
1644358125.944,95.703,11.230,26.855,93.262,-5.859
1644358125.948,105.469,8.789,25.391,101.562,10.254
1644358125.952,100.586,10.254,29.785,98.633,22.461
1644358125.955,89.355,15.625,34.180,87.891,45.410
1644358125.959,89.355,18.066,32.227,88.867,60.059
1644358125.963,97.168,16.602,27.832,98.145,100.586
1644358125.967,94.238,14.648,29.297,99.609,75.195
1644358125.971,79.590,2.930,31.250,87.402,36.133
1644358125.987,82.031,5.859,29.297,81.055,11.719
1644358125.991,90.820,23.438,25.879,89.355,26.855
1644358125.995,88.379,27.832,27.344,87.402,48.828
1644358125.999,71.777,24.902,29.297,80.078,24.414
1644358126.003,62.500,21.484,25.391,75.195,13.672
1644358126.007,76.660,21.973,20.508,78.613,28.809
1644358126.011,77.637,23.438,22.949,76.660,38.086
1644358126.014,64.453,23.926,24.414,59.082,27.832
1644358126.018,53.711,19.531,26.367,54.688,30.762
1644358126.022,62.012,18.555,26.855,60.059,40.039
1644358126.026,75.684,20.508,28.320,62.012,61.523
1644358126.030,70.312,17.578,30.762,56.152,83.496
1644358126.078,53.711,16.113,30.273,41.992,44.434
1644358126.082,55.176,16.113,28.809,45.898,-0.488
1644358126.086,61.523,24.414,24.902,56.152,9.277
1644358126.090,50.781,29.785,20.020,53.711,-5.371
1644358126.094,35.645,25.879,19.531,41.992,20.996
1644358126.098,36.133,25.391,24.902,37.598,50.781
1644358126.102,47.363,20.020,26.367,42.969,33.691
1644358126.105,50.781,14.648,22.461,40.527,43.945
1644358126.109,41.504,23.438,20.508,37.109,-3.906
1644358126.113,32.715,30.762,24.414,33.203,6.348
1644358126.117,43.457,32.227,29.785,36.133,52.246
1644358126.121,54.199,29.785,28.320,43.945,41.992
1644358126.082,42.480,25.879,26.855,38.574,48.340
1644358126.086,30.762,25.391,24.414,30.762,54.688
1644358126.090,41.504,27.832,22.461,35.156,6.348
