timestamps,TP9,AF7,AF8,TP10,Right AUX
1644362055.319,-20.020,38.086,22.949,0.488,2.930
1644362055.323,10.742,31.738,17.090,11.230,30.762
1644362055.327,29.297,28.320,15.625,4.395,27.344
1644362055.331,9.766,36.133,28.809,-1.953,34.668
1644362055.335,-7.324,39.062,33.203,-1.465,53.711
1644362055.339,14.648,37.598,23.926,4.395,54.199
1644362055.342,36.621,39.062,18.555,11.230,26.367
1644362055.346,18.066,23.926,25.879,6.836,39.551
1644362055.350,-7.812,22.461,33.203,4.395,24.902
1644362055.354,15.625,39.551,30.762,10.742,5.859
1644362055.358,41.992,42.480,21.484,5.859,26.367
1644362055.362,32.227,35.156,20.508,3.418,16.113
1644362055.528,-0.488,29.297,27.344,1.953,55.664
1644362055.532,-6.348,29.297,29.785,-2.441,40.039
1644362055.536,31.250,31.738,23.926,0.000,8.301
1644362055.540,45.898,29.785,20.996,2.930,23.438
1644362055.544,21.973,25.391,31.250,3.418,33.203
1644362055.548,4.883,22.949,39.551,6.836,32.227
1644362055.551,28.809,25.879,37.598,14.648,47.852
1644362055.555,56.641,33.691,28.320,12.207,49.805
1644362055.559,30.273,35.156,20.508,16.602,23.438
1644362055.563,7.812,33.691,21.484,18.555,31.738
1644362055.567,28.809,32.227,20.996,20.020,-18.555
1644362055.571,50.781,24.414,18.555,27.832,-9.766
1644362055.532,35.156,25.879,23.438,22.949,46.387
1644362055.536,5.371,25.879,29.785,17.090,46.387
1644362055.540,13.672,24.414,34.668,17.578,27.344
1644362055.544,41.504,35.156,21.973,15.137,17.090
1644362055.548,39.062,43.457,13.184,13.184,24.414
1644362055.552,-0.488,35.156,24.902,12.695,11.230
1644362055.555,-8.301,20.996,26.367,8.301,31.250
1644362055.559,26.855,26.367,18.066,12.207,40.527
1644362055.563,37.598,28.809,12.695,15.137,46.875
1644362055.567,8.301,25.391,14.648,10.254,88.379
1644362055.571,-0.977,28.809,21.973,12.207,46.387
1644362055.575,26.855,33.203,20.508,18.066,5.371
1644362055.542,42.969,32.227,14.648,21.973,15.625
1644362055.546,17.090,27.832,18.066,17.578,14.648
1644362055.550,-10.742,26.367,22.949,11.230,79.102
1644362055.554,6.836,25.391,26.367,14.160,63.965
1644362055.558,35.156,24.414,25.391,16.113,4.883
1644362055.562,34.668,27.344,17.090,17.578,74.219
1644362055.565,-1.465,28.809,17.090,10.254,37.109
1644362055.569,-7.812,12.695,27.832,4.395,-21.973
1644362055.573,32.227,6.836,30.273,19.043,8.789
1644362055.577,37.598,22.461,21.973,22.461,38.574
1644362055.581,2.930,29.297,17.090,7.812,58.594
1644362055.585,-2.441,31.250,17.090,13.672,62.012
1644362055.546,31.738,35.645,21.484,21.484,70.312
1644362055.550,40.039,38.086,20.020,16.113,46.875
1644362055.554,13.184,30.762,17.578,17.578,-37.109
1644362055.558,-0.977,26.855,17.578,22.949,-24.902
1644362055.562,22.949,26.367,20.508,25.879,-4.883
1644362055.566,42.480,21.973,21.973,31.738,-27.832
1644362055.569,28.320,28.320,23.926,27.832,-16.602
1644362055.573,-3.906,30.762,29.297,24.902,-11.230
1644362055.577,10.742,31.738,25.879,28.320,14.648
1644362055.581,39.551,35.156,30.762,24.902,30.762
1644362055.585,29.297,24.902,34.668,17.090,-19.531
1644362055.589,6.836,25.391,28.320,14.648,13.672
1644362055.602,7.812,28.809,26.367,18.555,57.617
1644362055.606,35.156,20.508,26.367,22.949,50.293
1644362055.610,42.969,25.391,21.973,17.090,81.055
1644362055.614,9.277,35.645,21.973,5.371,53.223
1644362055.618,-11.230,33.203,23.438,8.301,53.711
1644362055.622,21.484,24.902,23.926,20.996,61.523
1644362055.625,43.457,30.762,23.926,24.414,18.066
1644362055.629,14.160,28.320,26.855,13.184,49.805
1644362055.633,-10.254,22.949,28.320,10.742,100.586
1644362055.637,16.113,21.484,22.949,17.090,68.359
1644362055.641,49.805,20.508,16.113,20.996,72.266
1644362055.645,37.109,28.809,20.508,24.902,83.984
1644362055.605,8.789,29.785,26.855,20.996,55.176
1644362055.609,13.184,25.879,26.855,10.742,34.180
1644362055.613,39.062,26.367,22.461,18.555,51.270
1644362055.617,39.551,25.391,16.602,30.762,50.781
1644362055.621,1.953,22.949,16.113,18.555,35.156
1644362055.625,-7.324,22.949,21.973,10.742,22.461
1644362055.628,28.320,21.484,26.367,22.949,55.664
1644362055.632,42.480,22.461,22.949,25.391,110.840
1644362055.636,18.066,19.043,19.043,20.508,74.219
1644362055.640,9.766,12.207,21.973,20.996,0.000
1644362055.644,34.180,17.578,27.832,25.879,-13.184
1644362055.648,49.805,26.855,25.879,28.809,37.109
1644362055.647,32.227,31.250,24.414,22.949,29.297
1644362055.651,6.348,35.645,22.949,18.555,-18.555
1644362055.655,20.508,35.156,24.902,27.832,29.297
1644362055.659,46.387,25.391,25.391,30.273,32.227
1644362055.663,37.109,28.320,16.113,15.625,15.137
1644362055.667,8.301,37.109,21.484,17.090,17.090
1644362055.670,9.277,36.621,30.762,24.414,10.254
1644362055.674,46.875,32.227,25.879,25.391,-0.488
1644362055.678,47.363,28.320,22.461,21.973,24.414
1644362055.682,8.789,27.832,25.391,11.230,17.090
1644362055.686,0.977,21.484,24.902,10.254,33.691
1644362055.690,27.344,16.602,28.320,19.531,-11.719
1644362055.692,37.598,21.484,32.227,21.484,-12.207
1644362055.696,10.742,37.109,26.367,11.719,81.055
1644362055.700,-9.766,41.992,19.531,5.371,41.504
1644362055.704,14.160,31.738,27.832,7.324,32.715
1644362055.708,35.156,25.391,31.738,13.184,60.059
1644362055.712,8.789,29.785,20.020,13.184,-10.742
1644362055.715,-16.602,33.203,23.438,5.859,-10.742
1644362055.719,-1.953,30.762,29.785,4.395,40.527
1644362055.723,24.902,24.414,23.926,6.836,22.949
1644362055.727,20.508,21.973,25.879,12.695,47.363
1644362055.731,-7.812,20.996,28.320,12.207,73.730
1644362055.735,-3.418,15.137,26.367,12.695,62.012
1644362055.755,29.297,12.695,24.414,17.090,62.012
1644362055.759,37.598,28.320,25.879,20.996,34.668
1644362055.763,5.371,29.785,28.320,12.695,13.672
1644362055.767,-6.836,13.672,24.902,10.254,-12.695
1644362055.771,21.973,20.508,23.438,12.695,58.594
1644362055.775,36.133,37.109,24.414,13.672,35.156
1644362055.778,15.137,34.180,23.926,22.461,-33.691
1644362055.782,-7.812,26.367,28.809,15.625,-4.883
1644362055.786,10.742,34.668,30.762,11.719,-12.207
1644362055.790,41.016,37.598,25.391,27.832,-1.465
1644362055.794,24.414,28.809,22.949,22.461,5.371
1644362055.798,-6.836,26.367,24.902,5.371,20.996
1644362055.873,1.953,23.926,23.926,8.789,39.062
1644362055.877,29.785,27.832,14.160,19.043,59.570
1644362055.881,32.715,35.645,15.137,19.531,55.664
1644362055.885,3.906,33.203,15.625,10.742,9.277
1644362055.889,1.953,31.738,15.137,9.766,17.578
1644362055.893,41.504,29.785,23.926,15.137,20.996
1644362055.896,50.293,25.391,29.785,19.531,10.742
1644362055.900,11.719,28.320,29.785,12.207,45.898
1644362055.904,-8.789,33.691,31.250,6.348,61.035
1644362055.908,19.043,36.621,36.621,11.719,53.223
1644362055.912,41.992,29.785,36.133,10.742,63.965
1644362055.916,28.809,28.320,27.344,9.766,29.297
1644362055.878,1.953,30.762,22.461,13.184,46.875
1644362055.882,17.090,24.902,25.879,24.414,62.500
1644362055.886,47.852,32.227,23.438,20.020,33.203
1644362055.890,27.344,38.574,24.902,8.789,69.824
1644362055.894,-4.883,36.621,28.809,17.090,24.902
1644362055.898,7.324,36.133,25.391,24.414,-14.160
1644362055.901,40.039,33.691,25.391,27.344,39.551
1644362055.905,45.410,28.320,28.809,29.297,43.945
1644362055.909,6.836,22.949,32.715,22.949,8.301
1644362055.913,-11.230,22.461,29.785,14.160,-16.113
1644362055.917,17.578,23.926,24.902,15.137,25.391
1644362055.921,32.715,16.602,29.785,18.555,81.543
1644362055.881,4.883,11.230,28.809,13.672,49.805
1644362055.885,-17.090,21.973,20.020,6.836,25.879
1644362055.889,16.113,30.273,26.855,13.672,67.383
1644362055.893,41.016,28.320,33.691,15.137,91.309
1644362055.897,23.926,27.832,33.691,11.719,62.500
1644362055.901,0.977,29.297,30.273,12.695,79.102
1644362055.904,4.883,27.344,26.855,9.766,83.496
1644362055.908,29.297,24.902,29.785,15.137,0.488
1644362055.912,29.297,25.391,28.809,17.578,-40.527
1644362055.916,-8.301,30.762,27.344,10.254,-49.316
1644362055.920,-12.695,32.715,19.531,6.836,0.000
1644362055.924,23.926,25.391,9.766,10.254,75.195
1644362055.932,33.691,20.996,23.926,15.137,67.383
1644362055.936,4.395,18.555,36.621,15.625,55.176
1644362055.940,-7.324,21.973,27.832,14.648,14.160
1644362055.944,26.855,25.879,25.879,22.949,-10.742
1644362055.948,43.457,24.902,30.762,20.996,-1.465
1644362055.952,18.555,26.367,30.762,11.719,-28.320
1644362055.955,-8.301,23.438,33.691,9.766,4.883
1644362055.959,12.207,18.555,34.668,9.277,75.195
1644362055.963,41.016,22.949,29.297,16.113,27.344
1644362055.967,23.438,18.555,20.996,20.020,-23.926
1644362055.971,-0.977,14.160,15.137,23.926,14.160
1644362055.975,15.625,19.531,16.602,24.414,54.688
1644362055.978,41.016,22.461,22.949,23.926,68.359
1644362055.982,36.621,30.762,23.926,26.855,22.461
1644362055.986,11.719,32.227,13.672,26.855,12.207
1644362055.990,9.277,24.414,10.254,21.484,24.414
1644362055.994,42.480,20.996,18.066,23.438,8.301
1644362055.998,59.570,20.996,22.949,26.855,3.906
1644362056.001,32.227,27.832,24.902,20.996,47.363
1644362056.005,20.508,33.203,19.531,24.902,39.062
1644362056.009,41.504,27.832,19.531,29.785,41.992
1644362056.013,56.641,30.273,23.926,24.414,37.109
1644362056.017,41.016,35.645,22.949,22.461,-0.488
1644362056.021,11.719,35.645,26.367,21.973,2.441
1644362056.022,25.391,30.273,25.391,19.531,-11.719
1644362056.026,41.504,20.508,22.461,19.043,16.602
1644362056.030,19.531,28.320,20.996,17.578,22.461
1644362056.034,-7.324,33.691,17.090,15.137,41.016
1644362056.038,0.977,23.438,20.508,17.090,55.176
1644362056.042,32.227,23.438,23.438,21.484,0.977
1644362056.045,32.715,26.855,23.926,20.996,8.301
1644362056.049,-8.301,25.391,24.414,7.812,48.340
1644362056.053,-13.672,29.297,21.484,5.371,25.879
1644362056.057,25.391,30.762,28.320,13.184,27.344
1644362056.061,39.551,22.949,36.621,20.020,40.039
1644362056.065,12.695,24.414,39.062,16.602,25.391
1644362056.068,-5.371,28.320,35.156,12.207,13.672
1644362056.072,21.484,24.414,28.809,21.484,14.648
1644362056.076,46.875,29.297,25.879,17.578,6.348
1644362056.080,25.879,35.156,21.973,13.672,22.949
1644362056.084,-3.418,32.227,18.555,19.531,47.852
1644362056.088,8.301,30.273,23.926,20.508,29.785
1644362056.091,34.180,23.926,31.250,23.926,-24.414
1644362056.095,29.785,20.020,30.273,19.043,-17.578
1644362056.099,-2.441,24.414,27.344,4.883,47.852
1644362056.103,-1.953,25.879,22.461,3.906,17.578
1644362056.107,31.738,21.484,16.602,9.766,-36.133
1644362056.111,34.180,23.926,21.973,16.602,9.766
1644362056.203,3.418,31.250,23.926,9.766,96.191
1644362056.207,-1.465,37.598,23.926,8.301,75.195
1644362056.211,23.926,37.598,32.227,24.902,70.801
1644362056.215,42.969,30.273,34.668,25.879,108.398
1644362056.219,16.602,26.855,25.879,18.066,20.508
1644362056.223,-10.742,25.879,24.902,21.973,37.598
1644362056.226,13.184,30.762,27.344,17.578,76.172
1644362056.230,39.062,28.809,26.367,13.184,2.441
1644362056.234,20.020,26.367,30.273,13.672,21.973
1644362056.238,-10.254,30.273,28.320,10.742,8.301
1644362056.242,3.418,30.762,20.508,4.395,-35.645
1644362056.246,35.156,29.297,22.949,5.859,-2.930
1644362056.207,29.785,31.250,30.762,9.277,23.926
1644362056.211,-2.930,37.598,29.785,7.324,16.602
1644362056.215,3.906,32.227,23.926,6.348,19.531
1644362056.219,36.621,19.531,17.578,14.648,11.230
1644362056.223,40.527,29.297,17.578,19.043,25.879
1644362056.227,13.672,38.086,20.508,12.207,43.457
1644362056.230,2.930,34.668,29.785,9.766,12.207
1644362056.234,34.668,36.621,39.062,12.207,32.715
1644362056.238,49.805,35.156,38.574,19.531,32.227
1644362056.242,19.043,32.715,31.250,17.090,63.965
1644362056.246,-6.348,32.715,23.926,7.812,120.117
1644362056.250,16.602,30.762,23.438,7.812,76.172
1644362056.211,45.410,28.320,20.020,17.578,41.016
1644362056.215,29.785,32.227,14.160,23.926,21.973
1644362056.219,0.000,37.109,18.066,20.508,-7.812
1644362056.223,11.719,33.691,21.973,21.484,17.578
1644362056.227,42.969,26.367,26.367,21.484,58.594
1644362056.231,36.621,24.414,25.879,17.090,78.613
1644362056.234,2.930,18.066,14.160,10.254,103.516
1644362056.238,-1.953,18.066,8.789,8.301,74.219
1644362056.242,32.227,26.855,13.672,13.184,47.852
1644362056.246,44.434,30.762,22.461,18.066,26.367
1644362056.250,14.160,31.250,28.320,21.973,54.688
1644362056.254,-0.488,24.902,23.438,18.555,41.016
1644362056.323,22.949,18.555,18.555,18.066,-3.906
1644362056.327,41.992,27.344,24.902,32.715,-2.441
1644362056.331,20.996,31.738,28.809,23.438,0.488
1644362056.335,-13.672,26.367,20.996,5.859,-12.695
1644362056.339,0.977,25.391,12.207,19.043,-16.113
1644362056.343,36.133,29.297,14.160,26.855,-11.719
1644362056.346,28.320,23.438,24.902,21.484,-20.020
1644362056.350,-0.488,20.020,29.297,15.137,1.465
1644362056.354,1.465,29.785,20.996,14.160,32.715
1644362056.358,31.250,27.344,10.254,21.973,82.520
1644362056.362,36.133,27.832,11.719,23.926,56.152
1644362056.366,3.906,32.227,24.414,16.113,-1.953
1644362056.328,-9.277,25.391,33.691,8.301,34.180
1644362056.332,21.973,20.020,29.297,13.184,18.066
1644362056.336,40.039,19.043,23.926,20.020,-2.930
1644362056.340,6.348,21.484,19.043,18.555,14.648
1644362056.344,-11.719,20.996,13.672,12.207,28.320
1644362056.348,15.625,19.531,11.719,4.883,34.180
1644362056.351,35.645,23.438,11.230,11.230,42.969
1644362056.355,23.438,25.391,19.043,17.090,64.453
1644362056.359,-6.348,23.438,24.414,7.324,34.180
1644362056.363,4.883,18.555,20.020,2.930,-18.066
1644362056.367,37.109,18.066,21.484,13.184,50.293
1644362056.371,27.344,20.508,23.438,17.578,60.547
1644362056.352,-5.371,19.043,20.508,14.648,24.414
1644362056.356,-5.859,16.602,20.508,14.160,38.574
1644362056.360,27.344,10.742,22.949,12.695,52.246
1644362056.364,40.527,13.184,19.531,13.672,59.082
1644362056.368,5.371,22.461,20.020,12.695,39.062
1644362056.372,-9.277,17.090,23.926,12.695,58.594
1644362056.375,28.320,18.555,19.043,20.020,84.473
1644362056.379,46.387,35.156,20.020,25.391,42.969
1644362056.383,23.926,38.574,19.531,19.043,13.672
1644362056.387,1.953,33.203,17.090,16.113,50.293
1644362056.391,21.484,37.598,21.484,23.438,94.238
1644362056.395,41.504,37.598,29.297,20.996,69.336
1644362056.398,20.508,28.320,30.273,11.719,43.945
1644362056.402,-4.883,24.902,21.484,5.371,30.762
1644362056.406,3.906,26.855,17.090,9.766,-18.066
1644362056.410,32.715,27.344,18.555,24.902,6.348
1644362056.414,31.738,24.414,12.695,23.438,54.688
1644362056.418,-2.930,22.461,12.695,18.066,23.438
1644362056.421,-2.930,26.855,18.555,15.625,28.809
1644362056.425,20.996,29.297,19.043,3.906,54.688
1644362056.429,26.855,28.320,10.254,1.465,62.012
1644362056.433,7.324,25.391,6.348,4.395,20.508
1644362056.437,-6.348,26.367,10.254,3.418,14.160
1644362056.441,28.320,31.738,11.719,10.742,41.992
1644362056.533,48.340,31.250,16.113,14.648,36.133
1644362056.537,17.090,27.344,20.508,14.160,35.645
1644362056.541,-11.230,27.344,21.484,15.625,15.137
1644362056.545,13.184,15.625,20.996,21.973,18.066
1644362056.549,44.434,15.625,19.531,20.508,40.527
1644362056.553,30.273,32.715,19.531,20.996,22.949
1644362056.556,-1.953,28.809,27.344,26.855,-10.742
1644362056.560,-12.695,18.555,31.738,14.160,-21.484
1644362056.564,12.695,23.926,31.738,9.766,18.066
1644362056.568,21.973,31.250,31.738,6.836,57.617
1644362056.572,-5.371,35.645,31.250,-2.930,47.363
1644362056.576,-9.277,29.297,31.250,2.930,38.086
1644362056.538,23.438,23.926,25.879,11.230,36.621
1644362056.542,33.691,31.738,18.066,11.230,11.719
1644362056.546,8.301,33.203,20.020,8.301,23.438
1644362056.550,-3.418,28.320,20.020,5.371,56.152
1644362056.554,22.949,26.855,20.996,9.766,67.383
1644362056.558,46.387,27.344,28.809,18.555,25.879
1644362056.561,23.438,24.902,27.832,18.066,8.789
1644362056.565,-4.883,23.438,26.855,18.066,60.547
1644362056.569,11.230,23.926,25.879,18.066,55.176
1644362056.573,38.086,22.461,28.320,18.066,-5.859
1644362056.577,30.273,22.949,32.227,19.043,-0.977
1644362056.581,5.859,29.785,23.438,14.160,-7.324
1644362056.542,13.672,30.762,19.531,14.160,-29.785
1644362056.546,43.945,30.762,28.809,27.832,31.738
1644362056.550,44.434,35.156,33.203,27.344,68.359
1644362056.554,13.672,26.367,29.297,15.625,4.883
1644362056.558,6.348,17.578,20.996,17.578,-56.641
1644362056.562,28.809,25.879,17.578,20.020,-1.953
1644362056.565,40.527,31.738,23.926,17.578,8.301
1644362056.569,15.625,30.762,30.273,17.090,7.812
1644362056.573,-4.883,29.785,34.180,14.160,44.922
1644362056.577,15.137,29.297,33.203,21.973,39.551
1644362056.581,38.574,28.809,32.715,31.738,86.914
1644362056.585,29.297,29.297,29.785,26.855,99.609
1644362056.580,-2.930,24.902,23.926,23.926,104.004
1644362056.584,7.812,23.438,33.691,23.926,135.742
1644362056.588,38.086,20.508,33.691,21.973,82.031
1644362056.592,27.832,16.113,26.367,28.809,3.418
1644362056.596,-8.301,18.555,26.367,25.879,16.113
1644362056.600,-4.883,24.414,26.367,17.090,11.719
1644362056.603,33.203,25.879,27.832,11.719,6.348
1644362056.607,41.504,25.879,29.297,8.789,30.273
1644362056.611,7.324,27.832,28.809,10.742,30.273
1644362056.615,-5.371,25.391,31.250,9.277,58.105
1644362056.619,27.344,30.762,26.367,17.090,60.547
1644362056.623,46.387,35.156,25.391,25.879,73.730
1644362056.713,23.438,27.832,36.133,26.367,87.402
1644362056.717,-2.930,32.227,30.762,19.043,27.344
1644362056.721,19.043,37.109,20.020,22.949,-17.090
1644362056.725,48.340,26.367,21.484,30.273,-5.371
1644362056.729,26.855,25.879,29.785,24.902,0.977
1644362056.733,-0.488,37.598,30.762,18.066,27.832
1644362056.736,11.230,38.574,22.461,11.719,-19.043
1644362056.740,36.621,36.621,20.508,13.184,0.000
1644362056.744,33.691,31.250,27.344,17.090,30.273
1644362056.748,4.883,29.297,33.691,16.602,10.742
1644362056.752,2.441,36.133,32.715,21.973,36.621
1644362056.756,32.715,37.109,27.344,28.320,49.805
1644362056.717,42.480,38.086,16.113,23.438,24.902
1644362056.721,14.160,36.133,14.648,18.555,16.113
1644362056.725,1.953,30.762,29.297,22.461,21.484
1644362056.729,29.297,29.785,33.203,22.949,12.695
1644362056.733,46.387,32.227,25.391,26.855,34.180
1644362056.737,23.438,35.156,23.438,27.344,60.547
1644362056.740,-6.348,36.621,27.344,19.043,4.883
1644362056.744,13.184,33.203,29.297,22.461,-2.930
1644362056.748,42.480,29.785,30.762,25.391,22.461
1644362056.752,32.227,27.832,32.227,26.367,43.457
1644362056.756,4.395,30.273,31.250,25.391,37.598
1644362056.760,9.277,32.227,28.320,17.090,45.898
1644362056.722,42.480,16.602,26.367,17.090,25.391
1644362056.726,41.992,10.254,28.809,22.461,23.926
1644362056.730,5.371,31.738,27.832,18.066,20.996
1644362056.734,-5.371,45.410,23.926,14.648,23.926
1644362056.738,25.391,41.992,20.996,19.531,84.473
1644362056.742,39.062,35.156,14.648,20.996,75.684
1644362056.745,12.695,36.621,14.160,15.137,21.484
1644362056.749,-3.906,35.156,22.949,13.184,-32.227
1644362056.753,21.973,28.320,14.648,16.113,24.902
1644362056.757,53.223,32.227,3.418,20.508,69.824
1644362056.761,40.039,39.062,19.531,16.602,22.949
1644362056.765,10.742,35.645,27.344,8.789,5.859
1644362056.774,23.926,30.273,20.020,10.254,37.598
1644362056.778,52.734,29.785,12.695,12.207,47.852
1644362056.782,42.969,29.297,8.301,12.207,32.715
1644362056.786,7.324,30.273,12.695,8.301,27.832
1644362056.790,0.488,33.203,12.207,8.301,30.762
1644362056.794,24.414,32.227,10.254,8.789,28.809
1644362056.797,29.297,30.273,17.090,0.488,26.367
1644362056.801,0.488,23.438,23.438,-4.395,30.762
1644362056.805,-11.719,16.602,18.555,1.465,31.250
1644362056.809,16.602,21.973,9.277,6.836,41.992
1644362056.813,33.691,31.738,12.695,8.301,89.355
1644362056.817,13.672,35.645,22.949,5.371,79.590
1644362056.893,-2.441,30.762,29.297,6.348,37.109
1644362056.897,11.230,30.762,25.391,9.766,39.551
1644362056.901,28.320,31.250,18.555,7.324,35.645
1644362056.905,15.137,28.809,17.578,4.395,20.508
1644362056.909,-17.090,27.832,19.531,6.348,-13.672
1644362056.913,-11.719,23.438,23.438,7.812,9.277
1644362056.916,21.484,21.484,23.926,8.789,48.828
1644362056.920,24.902,23.926,18.066,11.230,47.852
1644362056.924,0.000,23.926,13.672,8.301,50.781
1644362056.928,3.906,25.391,23.926,10.742,-19.043
1644362056.932,30.762,26.367,33.691,16.602,-15.625
1644362056.936,40.039,27.344,30.273,16.602,20.996
1644362056.897,16.602,29.297,22.461,19.531,5.859
1644362056.901,0.488,26.367,18.066,16.113,1.465
1644362056.905,27.344,24.902,10.254,13.672,-7.812
1644362056.909,52.734,14.160,13.672,20.508,35.645
1644362056.913,30.273,14.160,19.531,17.578,17.578
1644362056.917,1.465,33.203,19.043,13.672,20.020
1644362056.920,16.602,37.598,24.414,23.438,96.191
1644362056.924,41.504,33.691,22.949,32.227,66.406
1644362056.928,30.273,33.203,21.973,28.320,0.488
1644362056.932,10.254,29.785,30.273,28.320,-32.227
1644362056.936,16.602,23.438,34.668,31.250,14.160
1644362056.940,47.363,24.902,33.203,25.879,58.594
1644362056.907,49.805,32.227,26.367,25.391,3.418
1644362056.911,10.254,32.227,26.855,21.484,-2.930
1644362056.915,3.906,24.414,26.855,21.484,10.742
1644362056.919,40.527,28.809,24.902,26.855,29.297
1644362056.923,55.176,35.645,29.297,25.879,62.500
1644362056.927,32.715,32.227,25.879,27.344,55.176
1644362056.930,11.230,30.762,25.391,32.227,30.762
1644362056.934,36.133,31.738,23.438,34.668,19.043
1644362056.938,64.453,33.691,28.320,29.785,28.809
1644362056.942,41.992,29.785,38.574,20.020,-13.184
1644362056.946,6.348,20.508,34.668,11.230,-19.531
1644362056.950,18.066,25.391,31.738,15.137,14.160
1644362056.968,45.898,36.133,29.297,19.043,74.219
1644362056.972,34.668,38.574,25.391,9.277,53.223
1644362056.976,3.906,37.109,23.926,5.371,32.715
1644362056.980,1.465,35.645,22.461,1.465,61.523
1644362056.984,34.180,32.715,20.020,3.418,36.621
1644362056.988,34.180,28.320,23.438,10.254,63.965
1644362056.991,8.301,28.809,30.273,12.207,48.828
1644362056.995,0.977,30.273,29.785,13.672,15.625
1644362056.999,22.461,24.414,28.809,18.555,21.484
1644362057.003,37.109,23.926,30.762,22.949,43.457
1644362057.007,6.836,23.926,26.367,17.578,78.613
1644362057.011,-7.324,24.902,24.902,15.137,52.734
1644362057.012,16.602,28.320,27.832,19.531,51.758
1644362057.016,36.621,23.438,31.250,24.902,72.754
1644362057.020,22.949,20.508,34.180,26.367,64.453
1644362057.024,-3.418,23.926,33.203,21.973,43.945
1644362057.028,8.301,29.785,25.879,18.555,45.898
1644362057.032,43.457,29.785,25.879,23.926,65.918
1644362057.035,40.527,24.414,34.668,31.738,16.602
1644362057.039,7.812,20.996,36.621,29.297,14.160
1644362057.043,6.836,17.090,31.250,22.949,28.809
1644362057.047,32.227,21.973,26.367,20.508,25.879
1644362057.051,41.016,32.227,27.344,21.973,54.688
1644362057.055,13.184,35.645,24.414,21.973,17.578
1644362057.057,-7.324,32.715,15.137,11.719,1.953
1644362057.061,26.855,28.320,16.602,11.230,33.691
1644362057.065,46.875,26.855,23.438,13.672,51.758
1644362057.069,15.625,22.461,18.555,4.883,61.035
1644362057.073,-4.883,23.438,18.066,-3.418,19.531
1644362057.077,18.555,30.273,11.719,3.418,-5.371
1644362057.080,45.410,27.832,3.418,12.695,-15.625
1644362057.084,30.762,25.391,20.508,10.254,17.578
1644362057.088,-0.977,26.367,31.738,8.301,56.641
1644362057.092,3.906,21.484,23.926,11.719,20.996
1644362057.096,37.109,23.438,21.484,22.461,20.996
1644362057.100,37.598,26.367,26.367,28.320,-3.418
1644362057.117,6.348,16.602,21.484,17.090,53.223
1644362057.121,-3.418,16.113,22.461,10.742,24.414
1644362057.125,22.461,27.832,29.297,17.578,-9.766
1644362057.129,32.715,26.367,26.855,22.461,45.898
1644362057.133,6.348,25.391,26.855,17.090,70.312
1644362057.137,-7.812,21.484,24.902,4.395,49.805
1644362057.140,12.695,17.578,20.020,8.301,29.297
1644362057.144,31.250,17.090,11.719,14.160,64.453
1644362057.148,7.812,25.391,11.230,7.324,36.133
1644362057.152,-14.160,41.016,21.973,7.812,21.484
1644362057.156,10.254,41.016,25.391,12.695,31.738
1644362057.160,46.875,33.691,26.367,20.996,2.441
1644362057.147,38.086,29.297,27.832,18.066,42.480
1644362057.151,-1.465,28.320,24.414,10.254,59.082
1644362057.155,0.000,30.273,22.461,15.137,41.016
1644362057.159,32.715,24.902,23.438,14.648,11.719
1644362057.163,42.480,19.531,25.879,13.184,-7.812
1644362057.167,14.648,24.902,32.715,11.230,7.812
1644362057.170,-2.441,25.391,33.691,14.160,7.324
1644362057.174,17.090,17.090,30.273,19.531,29.297
1644362057.178,34.180,17.578,21.973,19.043,45.410
1644362057.182,18.066,23.926,12.207,20.996,7.324
1644362057.186,0.488,24.414,21.973,23.438,12.207
1644362057.190,20.996,24.414,35.156,23.926,42.969
1644362057.387,40.039,22.461,31.738,21.484,0.488
1644362057.391,18.555,17.090,22.949,9.277,13.184
1644362057.395,-15.625,21.484,23.438,7.324,35.645
1644362057.399,-2.930,18.066,29.297,15.137,-20.508
1644362057.403,38.086,20.020,24.902,18.066,-22.461
1644362057.407,24.902,32.715,16.113,15.625,5.859
1644362057.410,-16.602,32.227,13.672,9.277,45.898
1644362057.414,-9.766,26.855,17.090,6.836,41.016
1644362057.418,28.809,26.855,20.508,14.648,47.363
1644362057.422,38.086,29.785,21.973,16.602,43.945
1644362057.426,2.441,30.762,22.461,7.812,41.016
1644362057.430,-9.277,27.344,24.902,7.324,97.656
1644362057.392,27.832,26.367,25.391,18.066,62.012
1644362057.396,43.945,28.320,24.902,23.438,7.812
1644362057.400,18.066,29.297,23.926,20.996,-46.387
1644362057.404,0.488,30.273,21.484,13.184,-2.930
1644362057.408,18.066,28.320,20.508,16.602,86.426
1644362057.412,40.039,23.438,16.113,22.461,28.320
1644362057.415,27.344,20.996,12.207,14.160,-9.277
1644362057.419,-1.953,24.414,15.137,10.254,21.484
1644362057.423,10.742,24.414,20.508,9.766,-6.836
1644362057.427,41.016,24.902,20.996,16.113,4.395
1644362057.431,39.062,24.414,25.391,22.461,43.457
1644362057.435,8.789,20.996,33.691,14.648,43.457
1644362057.402,3.418,9.766,34.668,8.301,44.434
1644362057.406,30.762,17.578,31.250,14.648,62.500
1644362057.410,37.598,34.668,32.227,17.090,46.387
1644362057.414,13.184,34.180,30.762,6.836,-5.859
1644362057.418,-3.906,30.273,25.879,4.395,17.578
1644362057.422,22.461,35.156,28.320,19.043,62.500
1644362057.425,52.246,36.133,24.902,29.297,75.684
1644362057.429,24.414,32.227,19.043,15.137,69.336
1644362057.433,-8.789,31.250,20.508,9.277,73.242
1644362057.437,7.812,24.902,15.625,16.113,68.848
1644362057.441,37.109,22.949,14.648,13.672,40.527
1644362057.445,32.715,23.926,22.461,11.719,22.461
1644362057.407,-3.906,24.414,26.367,5.859,51.758
1644362057.411,-9.277,25.391,22.461,4.395,86.426
1644362057.415,27.832,25.879,20.020,10.254,49.316
1644362057.419,38.086,28.809,24.414,14.160,-0.488
1644362057.423,5.371,33.203,29.297,11.719,11.230
1644362057.427,-2.441,38.574,33.203,14.648,71.777
1644362057.430,25.879,39.062,31.738,19.043,17.578
1644362057.434,45.898,37.109,31.250,20.996,20.996
1644362057.438,23.926,39.062,29.297,24.902,10.254
1644362057.442,-6.348,40.039,24.414,17.090,-17.578
1644362057.446,16.602,34.180,22.949,14.160,-3.906
1644362057.450,38.574,27.344,28.320,19.531,2.441
1644362057.412,20.996,31.250,27.832,17.578,67.871
1644362057.416,-2.930,27.832,23.438,12.207,60.059
1644362057.420,15.137,21.973,24.902,5.859,40.039
1644362057.424,44.922,31.738,18.555,8.789,20.020
1644362057.428,30.762,35.156,19.531,9.277,38.574
1644362057.432,0.488,25.391,30.273,12.695,32.715
1644362057.435,5.371,21.973,27.344,16.113,20.020
1644362057.439,37.598,26.367,29.297,8.301,8.301
1644362057.443,41.504,29.785,32.227,4.883,20.020
1644362057.447,9.766,26.367,28.320,8.789,45.898
1644362057.451,0.488,22.949,24.414,20.996,17.578
1644362057.455,27.344,27.832,21.484,16.602,-6.836
1644362057.432,45.410,28.809,19.531,6.836,9.277
1644362057.436,23.926,29.297,18.066,9.766,65.430
1644362057.440,-0.488,31.738,17.578,15.137,77.148
1644362057.444,25.391,33.203,17.090,19.043,64.941
1644362057.448,47.852,35.645,13.184,23.926,66.406
1644362057.452,27.832,32.227,15.625,26.367,28.809
1644362057.455,-1.953,21.973,23.926,21.973,44.922
1644362057.459,1.953,21.484,30.273,14.160,19.531
1644362057.463,31.250,19.531,31.250,10.254,12.695
1644362057.467,25.879,15.137,27.832,8.301,31.738
1644362057.471,-9.277,26.855,27.832,5.371,41.504
1644362057.475,-11.230,31.738,27.832,9.766,68.848
1644362057.477,23.438,29.785,26.855,10.254,67.383
1644362057.481,32.227,32.227,21.973,4.883,55.176
1644362057.485,-2.441,26.855,20.996,-0.977,39.062
1644362057.489,-11.719,20.996,27.832,4.395,-18.555
1644362057.493,20.020,16.113,22.949,17.090,11.719
1644362057.497,44.434,19.531,13.672,29.785,28.809
1644362057.500,18.066,26.367,13.184,30.273,-15.625
1644362057.504,-11.230,19.531,22.461,21.484,56.152
1644362057.508,9.766,12.695,31.250,16.113,54.688
1644362057.512,38.086,17.578,30.762,21.973,-4.883
1644362057.516,25.391,23.926,29.785,18.555,-2.930
1644362057.520,-6.836,31.738,28.320,5.371,53.223
1644362057.523,-2.930,35.156,29.297,11.230,44.434
1644362057.527,29.785,29.785,25.879,14.160,11.719
1644362057.531,36.133,30.273,20.020,13.672,20.508
1644362057.535,2.930,26.367,24.902,13.184,25.879
1644362057.539,-7.324,16.602,22.949,11.230,44.434
1644362057.543,29.785,20.996,24.902,25.879,71.289
1644362057.546,41.016,26.367,27.344,19.043,35.645
1644362057.550,1.465,24.902,20.020,2.441,14.648
1644362057.554,-21.973,19.043,20.508,3.418,4.395
1644362057.558,3.418,15.137,21.973,6.348,34.180
1644362057.562,27.832,19.043,25.879,11.230,63.965
1644362057.566,7.324,25.879,26.367,11.230,26.855
1644362057.585,-19.043,30.273,21.973,7.324,-14.160
1644362057.589,-2.930,31.250,18.555,9.766,62.012
1644362057.593,32.227,30.273,17.578,13.672,65.918
1644362057.597,27.832,29.297,19.531,10.742,30.762
1644362057.601,-6.836,28.320,22.949,2.441,84.961
1644362057.605,-3.906,23.438,22.461,3.906,39.551
1644362057.608,25.879,23.926,19.531,8.789,4.883
1644362057.612,23.926,23.438,21.484,4.395,-20.508
1644362057.616,-5.859,22.949,23.438,-3.906,-1.953
1644362057.620,-6.348,29.297,21.973,0.488,18.555
1644362057.624,28.320,24.902,20.020,9.277,-31.250
1644362057.628,41.504,18.066,25.879,9.766,20.508
1644362057.628,18.066,24.414,24.902,11.719,69.336
1644362057.632,1.465,39.062,20.996,11.230,14.648
1644362057.636,18.555,33.203,17.090,12.695,30.762
1644362057.640,30.762,25.879,15.625,11.719,62.988
1644362057.644,6.836,35.156,20.996,-1.465,39.062
1644362057.648,-16.113,39.062,20.996,-1.953,66.895
1644362057.651,-2.441,35.645,13.672,7.812,72.754
1644362057.655,28.809,25.391,10.742,3.906,36.133
1644362057.659,19.531,20.020,19.043,-1.953,6.348
1644362057.663,-14.648,22.461,25.879,-1.465,-15.625
1644362057.667,-12.207,22.949,22.461,-2.930,-27.344
1644362057.671,18.066,23.438,20.020,-1.953,-9.766
1644362057.703,26.855,19.043,23.438,3.906,14.160
1644362057.707,0.488,22.461,26.367,9.766,62.988
1644362057.711,-10.742,31.738,25.391,12.207,59.570
1644362057.715,18.066,30.273,18.555,16.602,49.805
1644362057.719,33.691,29.297,19.043,15.625,59.082
1644362057.723,9.277,30.762,30.273,10.742,35.156
1644362057.726,-5.371,30.273,31.738,10.742,56.152
1644362057.730,20.020,26.855,20.996,13.184,71.289
1644362057.734,43.945,21.973,17.578,20.020,73.242
1644362057.738,23.926,24.414,23.438,16.602,63.965
1644362057.742,-4.395,23.438,22.461,12.695,33.691
1644362057.746,12.695,24.414,20.996,17.090,41.016
1644362057.722,48.340,33.203,26.367,32.715,36.133
1644362057.726,43.457,28.809,29.785,36.133,57.617
1644362057.730,5.371,20.020,29.785,17.578,45.410
1644362057.734,4.395,19.531,24.414,17.578,5.371
1644362057.738,43.457,26.855,21.973,25.391,-10.742
1644362057.742,52.246,34.180,20.508,27.344,23.438
1644362057.745,20.020,28.809,18.555,23.926,18.066
1644362057.749,0.000,20.508,18.066,19.531,0.000
1644362057.753,28.320,24.414,16.113,22.949,41.016
1644362057.757,55.664,27.344,18.066,23.438,25.391
1644362057.761,29.785,24.414,17.090,22.461,33.691
1644362057.765,-0.977,22.949,18.066,17.578,21.973
1644362057.808,17.090,26.367,25.391,17.090,18.555
1644362057.812,43.457,26.855,24.902,18.066,25.391
1644362057.816,31.738,23.438,23.438,12.695,28.320
1644362057.820,2.441,24.902,21.484,12.207,75.195
1644362057.824,7.812,24.414,21.973,12.695,54.199
1644362057.828,37.109,22.949,24.414,20.020,34.180
1644362057.831,37.109,26.367,19.531,13.672,43.945
1644362057.835,10.742,34.180,16.113,10.742,-9.277
1644362057.839,1.465,25.391,21.973,19.043,6.348
1644362057.843,31.738,16.602,21.973,15.137,53.711
1644362057.847,44.922,25.391,16.602,10.742,17.578
1644362057.851,19.531,33.203,24.902,13.184,49.805
1644362057.826,7.812,35.645,29.785,19.043,74.219
1644362057.830,29.785,35.156,25.879,20.996,21.484
1644362057.834,47.852,40.527,24.902,16.602,20.020
1644362057.838,28.320,37.598,24.414,16.602,74.707
1644362057.842,0.000,25.879,21.973,11.230,81.055
1644362057.846,5.859,22.461,15.625,10.742,-0.488
1644362057.849,26.855,22.461,10.254,24.414,1.953
1644362057.853,17.090,27.344,17.090,22.461,62.012
1644362057.857,-6.836,30.273,18.066,13.184,32.715
1644362057.861,-2.441,29.785,16.113,16.602,40.527
1644362057.865,28.320,28.320,24.902,21.484,62.500
1644362057.869,38.086,29.785,33.203,25.391,10.742
1644362057.852,4.883,24.902,33.203,27.344,8.789
1644362057.856,-4.395,10.254,32.227,23.438,-7.812
1644362057.860,29.297,19.043,34.668,23.926,-4.395
1644362057.864,45.898,35.156,34.180,29.785,-0.977
1644362057.868,19.043,32.715,27.832,27.344,1.465
1644362057.872,-1.953,26.367,21.484,25.879,4.883
1644362057.875,22.461,29.297,23.926,23.926,-47.852
1644362057.879,41.992,29.785,20.996,21.484,58.105
1644362057.883,20.508,32.715,7.324,17.090,46.387
1644362057.887,-8.301,38.086,14.648,8.301,2.930
1644362057.891,8.789,33.203,31.250,13.672,106.934
1644362057.895,41.992,30.762,28.320,16.602,73.730
1644362057.988,34.180,34.668,26.367,10.742,34.668
1644362057.992,1.953,32.715,29.297,7.324,23.438
1644362057.996,3.418,26.367,25.879,7.812,42.969
1644362058.000,38.574,21.484,21.484,9.277,51.758
1644362058.004,37.598,16.113,15.137,11.230,38.574
1644362058.008,0.977,20.508,6.348,11.719,49.805
1644362058.011,-7.812,31.738,8.301,6.348,12.695
1644362058.015,23.926,30.273,13.672,10.254,0.488
1644362058.019,35.645,20.508,16.113,14.648,35.156
1644362058.023,7.324,22.461,21.973,3.418,20.508
1644362058.027,-10.254,31.250,25.879,1.953,5.859
1644362058.031,11.719,26.855,25.879,10.742,-1.953
1644362057.992,38.086,15.625,27.832,12.207,28.320
1644362057.996,26.855,17.578,23.438,10.254,43.945
1644362058.000,-1.953,30.762,20.508,10.742,14.160
1644362058.004,2.930,35.645,26.367,11.230,46.387
1644362058.008,28.809,34.180,21.973,13.672,58.594
1644362058.012,34.180,35.645,17.578,19.043,-0.488
1644362058.015,7.324,31.738,24.902,11.230,-24.902
1644362058.019,-0.488,28.320,21.484,11.719,-36.621
1644362058.023,33.203,18.555,16.113,20.508,13.184
1644362058.027,38.574,12.695,24.902,17.578,85.938
1644362058.031,1.953,16.113,30.273,14.160,91.309
1644362058.035,-8.789,21.484,27.344,13.672,81.055
1644362057.996,17.578,35.156,28.809,20.508,40.039
1644362058.000,35.645,34.180,27.344,21.484,12.207
1644362058.004,20.508,28.320,30.273,11.719,32.715
1644362058.008,-2.441,26.855,34.668,14.648,66.406
1644362058.012,9.277,23.438,29.785,17.578,31.738
1644362058.016,41.016,23.926,19.531,21.484,-10.254
1644362058.019,35.645,26.855,18.066,18.066,-1.465
1644362058.023,-0.977,25.879,31.250,8.301,22.949
1644362058.027,8.789,19.043,37.109,13.184,-2.930
1644362058.031,44.922,16.602,30.273,18.066,6.348
1644362058.035,43.457,21.973,24.414,16.602,32.715
1644362058.039,6.348,27.832,29.297,8.789,0.977
1644362058.063,-8.789,25.879,31.250,0.488,9.277
1644362058.067,19.043,24.902,29.785,8.301,40.039
1644362058.071,36.133,26.367,30.762,19.531,47.852
1644362058.075,12.695,31.250,29.297,11.230,51.270
1644362058.079,-1.465,36.621,30.273,7.812,64.941
1644362058.083,25.879,32.227,23.926,19.043,79.102
1644362058.086,41.504,22.461,21.484,14.648,90.820
1644362058.090,24.902,24.902,29.785,-0.488,62.500
1644362058.094,2.441,37.109,30.762,-2.441,37.109
1644362058.098,7.324,33.203,24.414,3.418,58.105
1644362058.102,35.645,25.391,23.926,15.137,32.227
1644362058.106,36.621,30.273,29.297,18.555,18.555
1644362058.093,2.441,30.273,34.668,9.766,25.391
1644362058.097,-2.441,27.832,35.156,10.742,1.465
1644362058.101,33.691,34.180,32.227,9.766,61.035
1644362058.105,37.598,38.086,27.832,4.395,47.363
1644362058.109,7.812,30.762,24.902,7.324,11.230
1644362058.113,5.859,26.367,21.484,9.766,28.809
1644362058.116,26.367,26.367,15.137,15.137,6.836
1644362058.120,37.109,23.926,16.602,11.719,44.922
1644362058.124,19.043,22.949,17.578,10.742,97.656
1644362058.128,-0.977,22.949,18.066,17.090,62.500
1644362058.132,19.531,26.855,22.949,20.020,29.297
1644362058.136,46.875,22.949,30.762,25.391,54.688
1644362058.138,28.320,18.555,28.809,22.949,36.133
1644362058.142,-2.930,23.926,25.879,12.207,31.738
1644362058.146,9.277,26.855,32.227,13.184,31.250
1644362058.150,36.621,23.438,31.250,20.996,28.320
1644362058.154,41.016,30.273,23.926,25.391,28.809
1644362058.158,14.160,38.574,16.602,20.996,22.461
1644362058.161,4.883,35.645,18.555,22.461,17.578
1644362058.165,29.785,30.762,23.438,31.738,22.949
1644362058.169,36.621,28.809,27.344,29.785,24.902
1644362058.173,13.184,29.297,26.367,15.625,41.504
1644362058.177,-1.465,27.344,23.438,10.254,35.156
1644362058.181,15.137,24.414,22.461,19.531,-19.531
1644362058.182,33.691,18.066,19.043,24.902,47.363
1644362058.186,15.625,20.020,21.484,21.973,80.566
1644362058.190,-6.836,24.414,25.391,18.066,40.527
1644362058.194,16.113,26.855,26.855,22.949,72.266
1644362058.198,42.969,31.250,29.785,26.367,34.180
1644362058.202,31.738,33.203,24.902,25.391,-6.348
1644362058.205,4.883,32.715,20.508,22.949,-16.113
1644362058.209,9.277,33.203,27.344,25.391,13.672
1644362058.213,38.574,38.086,28.320,20.020,26.855
1644362058.217,45.410,28.320,19.043,13.184,20.020
1644362058.221,13.184,23.438,19.043,20.020,45.410
1644362058.225,-0.977,29.785,26.855,20.508,41.504
1644362058.228,30.273,29.297,30.273,27.832,57.129
1644362058.232,42.969,28.320,23.438,27.344,45.898
1644362058.236,15.137,25.391,20.020,17.578,-10.254
1644362058.240,-0.488,25.879,17.578,16.113,8.301
1644362058.244,26.855,26.855,17.578,20.020,21.973
1644362058.248,46.387,29.785,27.344,21.484,24.902
1644362058.251,25.879,32.715,32.715,15.137,55.664
1644362058.255,3.418,32.715,32.227,11.230,67.871
1644362058.259,15.137,34.180,24.414,14.160,26.367
1644362058.263,38.574,29.785,21.973,15.137,15.625
1644362058.267,28.320,23.438,23.926,18.555,-14.648
1644362058.271,-2.441,27.832,11.719,20.508,28.809
1644362058.272,0.977,24.414,8.301,16.602,68.848
1644362058.276,34.180,12.207,32.715,19.043,30.762
1644362058.280,41.992,20.508,40.527,21.973,70.312
1644362058.284,7.324,27.344,29.297,24.902,81.055
1644362058.288,-5.371,19.531,23.438,24.902,18.066
1644362058.292,25.391,24.902,26.367,27.344,-10.254
1644362058.295,32.227,30.273,29.297,24.414,15.137
1644362058.299,5.859,28.809,30.762,15.625,36.133
1644362058.303,-10.254,27.344,22.461,14.648,36.621
1644362058.307,12.207,22.461,14.160,18.555,10.742
1644362058.311,34.180,21.973,22.461,18.555,3.906
1644362058.315,18.066,23.926,25.391,12.207,29.297
1644362058.377,-7.324,27.344,16.113,8.789,11.719
1644362058.381,8.789,24.414,20.020,17.578,11.719
1644362058.385,45.898,21.973,29.785,19.531,69.824
1644362058.389,45.898,28.320,29.785,18.555,101.562
1644362058.393,8.301,31.250,33.203,15.137,32.715
1644362058.397,0.488,24.414,31.250,9.277,-12.207
1644362058.400,33.691,17.578,21.484,12.207,2.441
1644362058.404,40.039,20.996,21.973,7.812,2.930
1644362058.408,9.277,26.367,28.809,1.465,38.086
1644362058.412,-7.324,30.762,26.367,11.719,28.320
1644362058.416,16.113,32.227,22.949,13.672,6.836
1644362058.420,37.109,39.062,24.414,12.207,20.508
1644362058.383,16.602,42.969,26.855,14.648,31.250
1644362058.387,-7.324,31.738,30.762,5.371,30.762
1644362058.391,6.836,19.531,26.855,4.883,10.742
1644362058.395,32.715,21.484,26.367,11.230,30.273
1644362058.399,20.020,28.320,29.785,10.742,41.992
1644362058.403,-8.789,27.344,30.762,8.789,42.969
1644362058.406,3.418,25.879,21.973,13.672,37.598
1644362058.410,30.762,24.414,17.090,19.043,61.035
1644362058.414,34.668,24.414,23.438,23.438,68.848
1644362058.418,18.555,26.855,30.273,32.227,49.316
1644362058.422,8.789,27.344,28.809,28.320,40.039
1644362058.426,27.344,18.066,26.855,13.672,50.781
1644362058.424,43.457,13.672,33.203,15.137,63.477
1644362058.428,18.066,22.461,33.691,17.090,52.734
1644362058.432,-15.137,23.438,25.879,4.395,54.688
1644362058.436,0.977,25.879,24.902,1.953,30.273
1644362058.440,29.297,26.367,26.855,8.301,24.414
1644362058.444,14.648,16.602,25.879,12.207,56.641
1644362058.447,-9.277,22.461,20.020,15.137,19.043
1644362058.451,8.301,38.086,20.020,15.625,-34.668
1644362058.455,35.645,37.109,32.227,19.531,12.695
1644362058.459,27.832,26.367,35.645,14.160,33.691
1644362058.463,-6.836,19.043,33.203,3.418,52.734
1644362058.467,-4.395,19.531,29.297,9.277,43.945
1644362058.468,32.715,21.484,24.902,19.531,68.848
1644362058.472,40.527,23.926,21.484,20.508,93.262
1644362058.476,15.625,28.320,20.020,16.113,50.781
1644362058.480,8.301,27.832,18.555,12.695,22.949
1644362058.484,32.227,16.602,12.695,14.160,29.297
1644362058.488,45.410,13.672,16.113,19.531,47.363
1644362058.491,16.602,20.996,24.414,18.066,35.645
1644362058.495,-3.906,23.438,27.832,16.602,0.488
1644362058.499,22.949,30.273,27.344,25.391,-4.883
1644362058.503,44.922,29.785,25.879,26.367,0.488
1644362058.507,30.273,24.902,24.902,20.996,4.395
1644362058.511,2.930,24.902,24.902,26.855,8.789
1644362058.512,12.695,20.996,25.879,28.809,42.480
1644362058.516,48.828,21.973,24.414,30.273,43.945
1644362058.520,42.480,27.832,23.926,36.133,54.688
1644362058.524,7.812,30.273,28.320,25.879,71.289
1644362058.528,9.766,35.156,22.949,19.531,46.875
1644362058.532,43.945,32.227,11.230,27.832,36.133
1644362058.535,45.410,31.250,14.160,22.949,50.293
1644362058.539,3.418,35.156,19.043,15.625,89.355
1644362058.543,-6.348,27.832,20.508,16.602,48.340
1644362058.547,22.949,19.043,27.832,13.672,-22.461
1644362058.551,37.598,16.113,28.320,11.719,15.137
1644362058.555,17.090,15.625,25.391,14.160,62.988
1644362058.572,-9.277,27.832,22.949,11.719,40.039
1644362058.576,11.719,34.180,19.531,10.742,-28.809
1644362058.580,38.574,30.762,21.484,18.555,5.371
1644362058.584,19.531,30.273,20.020,13.672,56.152
1644362058.588,-13.184,34.180,15.137,6.348,-24.902
1644362058.592,0.000,35.156,16.113,12.695,-30.273
1644362058.595,31.250,32.227,14.648,9.766,47.852
1644362058.599,25.879,28.809,14.160,7.812,24.414
1644362058.603,-1.953,26.855,17.578,7.812,-4.883
1644362058.607,-6.836,22.949,21.484,6.348,47.363
1644362058.611,22.949,20.508,21.973,13.184,43.945
1644362058.615,33.203,23.438,23.438,17.090,39.062
1644362058.602,5.859,23.926,27.832,15.625,11.719
1644362058.606,-10.254,19.531,28.320,14.160,-6.348
1644362058.610,12.695,23.926,20.996,11.719,33.203
1644362058.614,35.645,29.785,13.672,12.695,57.129
1644362058.618,17.090,26.367,8.301,9.766,33.203
1644362058.622,-14.648,23.438,7.812,5.859,-41.504
1644362058.625,1.465,19.043,17.578,11.230,-25.879
1644362058.629,36.133,17.578,23.926,18.066,6.348
1644362058.633,28.809,19.043,22.949,12.695,57.617
1644362058.637,-1.465,23.926,27.832,14.648,47.363
1644362058.641,5.859,26.855,34.180,22.461,10.742
1644362058.645,29.785,27.832,31.250,19.043,60.547
1644362058.647,25.879,23.926,21.484,15.137,64.453
1644362058.651,-3.418,19.043,20.508,11.719,27.344
1644362058.655,-11.230,27.344,25.391,10.742,3.906
1644362058.659,20.996,23.438,21.973,16.602,-13.184
1644362058.663,35.156,22.461,16.602,18.066,-33.691
1644362058.667,8.301,34.180,22.949,13.184,10.254
1644362058.670,-8.789,34.180,28.809,13.672,78.125
1644362058.674,12.695,31.250,25.879,8.789,69.336
1644362058.678,35.645,28.809,22.949,7.812,6.836
1644362058.682,15.137,27.344,24.414,5.859,-17.578
1644362058.686,-12.695,25.879,28.320,1.953,47.852
1644362058.690,8.789,16.602,21.484,7.812,55.664
1644362058.724,36.133,16.602,17.578,14.160,23.926
1644362058.728,20.508,20.996,23.438,9.766,60.059
1644362058.732,-10.742,23.438,27.344,3.418,47.363
1644362058.736,-6.348,22.461,27.832,8.301,22.949
1644362058.740,28.320,21.484,21.973,12.695,23.438
1644362058.744,33.203,23.926,23.438,15.625,45.898
1644362058.747,4.395,16.602,28.809,13.184,70.801
1644362058.751,-7.812,6.836,31.738,6.836,34.668
1644362058.755,14.648,16.602,36.621,11.230,20.508
1644362058.759,32.715,30.762,32.715,12.695,90.332
1644362058.763,7.812,35.156,27.832,9.277,112.305
1644362058.767,-14.160,36.621,25.391,7.812,42.480
1644362058.827,13.672,30.273,18.555,5.859,66.406
1644362058.831,43.945,21.484,21.973,12.207,60.547
1644362058.835,31.738,20.508,24.414,19.531,5.859
1644362058.839,0.488,22.461,17.090,14.648,24.414
1644362058.843,8.789,30.762,12.207,12.695,28.320
1644362058.847,39.062,31.738,15.625,17.090,47.852
1644362058.850,27.832,22.461,20.508,8.301,23.438
1644362058.854,-10.254,17.578,23.926,1.465,14.160
1644362058.858,-14.648,20.996,21.973,0.977,31.738
1644362058.862,20.020,28.809,22.949,1.953,0.000
1644362058.866,33.203,24.414,27.344,8.789,15.137
1644362058.870,7.812,11.719,20.996,4.395,84.961
1644362058.831,-1.953,16.602,16.113,4.395,52.246
1644362058.835,26.855,23.926,20.020,8.789,41.992
1644362058.839,43.945,29.785,26.367,8.301,73.242
1644362058.843,12.695,34.180,28.809,0.977,38.574
1644362058.847,-8.789,29.785,20.996,0.977,-46.875
1644362058.851,17.090,34.180,15.625,10.742,-29.297
1644362058.854,42.969,34.180,20.996,5.859,37.109
1644362058.858,40.039,30.273,26.855,5.371,25.391
1644362058.862,12.207,33.203,23.438,6.836,54.199
1644362058.866,5.371,29.297,20.508,5.859,54.199
1644362058.870,32.227,27.344,26.367,18.066,27.832
1644362058.874,29.785,31.738,30.273,20.508,53.711
1644362058.836,3.906,33.203,28.809,8.301,32.227
1644362058.840,5.859,30.273,31.250,4.883,5.371
1644362058.844,30.273,26.855,33.691,13.184,-23.926
1644362058.848,37.109,28.809,27.344,18.066,-15.137
1644362058.852,15.625,22.461,22.949,15.625,2.930
1644362058.856,1.953,8.789,20.996,12.695,-33.691
1644362058.859,23.926,14.648,16.113,8.789,9.277
1644362058.863,43.945,33.691,13.672,14.160,24.902
1644362058.867,24.902,41.504,17.578,14.160,31.250
1644362058.871,-4.395,35.156,21.973,1.953,61.523
1644362058.875,4.883,25.391,29.785,10.742,54.688
1644362058.879,34.180,26.367,29.785,21.484,32.715
1644362058.887,26.367,30.762,24.414,15.137,3.418
1644362058.891,-7.324,30.762,28.809,11.719,20.508
1644362058.895,-6.836,25.391,35.645,8.789,69.824
1644362058.899,23.438,24.414,38.086,10.742,54.688
1644362058.903,22.461,23.926,32.227,14.648,16.602
1644362058.907,-7.324,17.578,24.902,1.953,36.621
1644362058.910,-10.742,19.531,19.531,0.977,33.203
1644362058.914,16.602,18.066,22.461,5.859,28.809
1644362058.918,34.180,18.555,30.273,11.719,21.484
1644362058.922,17.090,22.949,29.297,18.555,25.391
1644362058.926,-13.184,27.832,29.297,18.066,13.672
1644362058.930,10.742,33.203,33.203,26.855,0.977
1644362058.947,46.875,36.621,34.668,30.273,27.832
1644362058.951,30.273,35.645,28.809,22.949,19.531
1644362058.955,0.977,27.832,24.902,17.578,86.426
1644362058.959,9.277,26.367,31.250,21.484,103.516
1644362058.963,37.598,28.809,28.320,24.902,14.160
1644362058.967,36.133,23.438,25.879,20.020,24.414
1644362058.970,7.812,20.020,21.484,10.254,28.320
1644362058.974,-6.348,27.832,17.578,7.812,-0.977
1644362058.978,21.973,29.785,20.508,10.254,-29.297
1644362058.982,37.109,26.855,20.996,16.113,-41.016
1644362058.986,-1.465,26.367,21.973,10.742,29.297
1644362058.990,-18.066,32.715,26.855,3.906,36.621
1644362058.992,19.043,23.438,31.738,16.113,0.977
1644362058.996,40.039,11.719,26.855,18.555,48.340
1644362059.000,17.578,22.949,25.879,14.648,77.148
1644362059.004,-14.648,29.785,33.691,10.254,55.176
1644362059.008,3.906,34.668,29.785,14.160,36.133
1644362059.012,41.016,33.691,26.367,16.602,59.082
1644362059.015,24.414,28.320,27.344,9.277,54.199
1644362059.019,-9.277,26.367,23.926,8.301,47.852
1644362059.023,0.488,22.461,16.113,10.254,48.828
1644362059.027,35.156,25.391,14.160,11.230,31.738
1644362059.031,36.621,29.297,18.555,14.648,7.812
1644362059.035,8.301,28.809,23.438,10.254,-52.246
1644362059.098,9.277,28.320,22.461,12.207,-20.996
1644362059.102,47.363,25.391,23.926,22.949,26.855
1644362059.106,61.035,24.414,33.203,31.250,-18.066
1644362059.110,22.949,30.762,30.273,33.691,18.066
1644362059.114,3.906,20.020,23.926,20.020,23.926
1644362059.118,31.250,20.996,25.879,21.484,14.648
1644362059.121,43.945,39.062,25.879,31.250,28.320
1644362059.125,16.602,38.574,24.902,29.785,41.016
1644362059.129,-13.672,34.668,33.203,23.438,46.875
1644362059.133,5.859,35.645,32.715,24.902,36.133
1644362059.137,43.457,30.762,22.461,27.344,77.148
1644362059.141,28.809,26.855,22.461,17.578,73.242
1644362059.102,-8.301,27.832,23.438,11.230,23.438
1644362059.106,2.930,27.344,23.438,21.484,24.414
1644362059.110,41.504,27.344,32.715,25.391,8.301
1644362059.114,40.527,26.367,30.762,21.484,-8.789
1644362059.118,5.371,21.484,26.855,7.324,37.109
1644362059.122,-4.395,23.926,29.785,1.953,8.789
1644362059.125,24.414,26.855,30.273,8.301,2.930
1644362059.129,38.086,25.391,27.344,7.324,36.133
1644362059.133,12.207,22.949,29.297,1.953,62.500
1644362059.137,-6.836,24.902,29.785,0.488,53.711
1644362059.141,14.160,22.461,15.625,7.812,-4.883
1644362059.145,33.203,9.766,17.578,9.766,9.766
1644362059.112,17.090,21.973,30.762,10.254,49.316
1644362059.116,-12.207,34.180,30.762,6.836,43.945
1644362059.120,0.488,34.180,25.391,7.324,39.062
1644362059.124,33.691,34.668,28.809,12.695,51.270
1644362059.128,27.344,29.297,31.250,11.230,19.531
1644362059.132,-3.906,21.484,27.344,8.301,-18.555
1644362059.135,-3.418,21.973,28.809,7.324,69.824
1644362059.139,28.320,23.438,31.250,14.160,96.191
1644362059.143,34.180,19.531,27.344,14.160,58.105
1644362059.147,7.812,20.996,19.531,11.230,50.781
1644362059.151,1.465,20.996,20.508,8.789,29.785
1644362059.155,25.391,24.902,22.949,6.348,29.785
1644362059.263,41.016,31.250,26.367,13.672,17.578
1644362059.267,12.207,28.320,31.250,20.020,-28.320
1644362059.271,-13.672,26.367,34.668,12.207,5.371
1644362059.275,15.625,27.344,31.250,12.207,22.461
1644362059.279,42.969,31.250,22.461,20.508,9.277
1644362059.283,28.320,20.020,24.414,19.531,35.156
1644362059.286,-4.395,7.812,27.832,8.301,6.836
1644362059.290,2.441,20.508,29.297,14.160,13.672
1644362059.294,33.203,30.762,17.578,18.066,60.059
1644362059.298,27.832,22.461,12.207,8.301,48.828
1644362059.302,-1.465,22.949,19.043,6.836,-0.977
1644362059.306,-5.859,30.762,20.020,4.883,40.527
1644362059.267,25.879,30.762,20.996,13.184,43.457
1644362059.271,41.504,28.320,21.973,20.508,20.996
1644362059.275,14.160,25.879,20.996,18.555,24.902
1644362059.279,-1.465,23.438,19.531,16.602,59.570
1644362059.283,26.367,23.926,22.461,15.625,104.492
1644362059.287,45.898,26.855,20.996,22.461,77.637
1644362059.290,29.297,27.344,18.555,24.902,52.734
1644362059.294,10.742,24.902,20.996,19.043,1.953
1644362059.298,29.785,20.996,21.484,21.973,-3.906
1644362059.302,54.688,15.137,16.602,22.949,24.414
1644362059.306,46.875,18.066,9.277,21.973,40.527
1644362059.310,17.578,30.273,15.625,22.949,37.598
1644362059.271,17.578,31.738,24.902,24.902,33.203
1644362059.275,45.410,29.297,26.367,20.020,31.738
1644362059.279,45.410,36.133,28.320,13.672,67.871
1644362059.283,16.113,37.109,26.855,18.555,31.738
1644362059.287,8.301,27.832,26.367,19.531,32.227
1644362059.291,32.227,26.367,27.832,22.461,75.684
1644362059.294,39.551,30.273,22.949,26.855,3.906
1644362059.298,9.277,27.832,23.926,20.020,-3.906
1644362059.302,-8.301,28.809,27.832,16.113,39.062
1644362059.306,16.113,29.785,25.391,15.137,74.219
1644362059.310,41.992,25.391,25.391,18.555,70.801
1644362059.314,21.484,27.344,17.090,18.066,15.137
1644362059.323,-9.766,33.203,11.719,18.555,22.949
1644362059.327,2.930,27.344,22.949,20.508,33.691
1644362059.331,35.645,23.926,25.391,23.438,27.832
1644362059.335,29.785,28.809,21.973,25.879,14.648
1644362059.339,-7.324,28.809,28.320,20.508,0.977
1644362059.343,1.465,29.785,34.180,21.973,29.785
1644362059.346,31.250,21.973,31.250,22.949,45.410
1644362059.350,31.738,22.461,25.879,19.531,44.922
1644362059.354,15.625,38.086,22.949,15.137,44.434
1644362059.358,-0.488,40.527,29.297,11.719,52.246
1644362059.362,16.113,26.855,28.320,14.648,59.570
1644362059.366,38.086,19.531,28.809,12.695,44.922
1644362059.352,18.555,25.879,33.691,6.348,75.684
1644362059.356,0.000,29.297,25.879,10.254,79.102
1644362059.360,25.391,35.156,22.949,16.602,-13.184
1644362059.364,43.945,34.180,31.738,15.137,-8.301
1644362059.368,20.020,23.926,37.109,16.602,36.133
1644362059.372,-9.277,28.809,37.598,16.113,14.648
1644362059.375,4.395,34.180,25.879,13.672,32.227
1644362059.379,39.062,33.203,21.484,18.555,30.273
1644362059.383,32.715,37.109,29.297,25.391,2.930
1644362059.387,-3.418,27.344,33.691,18.066,51.758
1644362059.391,-7.324,15.137,34.668,4.395,106.934
1644362059.395,31.250,22.461,31.250,20.508,68.359
1644362059.414,42.480,32.715,31.738,23.438,1.953
1644362059.418,2.441,38.086,24.414,5.371,1.465
1644362059.422,-8.301,33.691,18.066,10.254,-12.695
1644362059.426,24.414,29.297,20.996,19.043,2.930
1644362059.430,35.156,32.227,16.602,11.230,26.367
1644362059.434,14.648,32.715,11.719,5.859,16.602
1644362059.437,-12.207,31.250,16.113,9.766,35.156
1644362059.441,6.348,30.273,26.855,13.672,42.969
1644362059.445,40.527,26.367,31.738,10.254,18.555
1644362059.449,24.902,26.855,27.344,6.836,4.883
1644362059.453,-6.348,31.738,24.414,10.254,47.852
1644362059.457,0.488,30.762,21.484,13.672,46.387
1644362059.442,24.902,23.926,14.160,13.672,26.367
1644362059.446,24.414,20.996,10.742,10.742,45.898
1644362059.450,-6.836,25.879,20.020,9.277,50.293
1644362059.454,-9.277,30.762,25.879,13.184,49.316
1644362059.458,28.809,30.762,24.902,18.555,51.270
1644362059.462,35.156,26.367,27.344,11.719,-8.789
1644362059.465,7.812,25.879,32.715,10.254,-0.488
1644362059.469,-3.418,25.879,31.250,12.695,43.457
1644362059.473,11.230,25.391,25.391,15.625,-1.465
1644362059.477,26.855,25.391,20.020,16.602,1.953
1644362059.481,9.766,15.137,25.391,12.207,42.969
1644362059.485,-15.625,12.695,27.832,9.766,35.645
1644362059.518,4.883,19.531,20.996,7.812,17.090
1644362059.522,36.621,19.531,23.438,11.719,38.574
1644362059.526,22.949,20.508,19.531,5.859,55.176
1644362059.530,-1.465,23.926,13.672,4.883,-2.930
1644362059.534,6.348,24.902,15.137,9.277,4.883
1644362059.538,35.156,18.555,14.160,10.742,44.922
1644362059.541,37.109,19.531,22.949,9.277,49.805
1644362059.545,1.953,28.809,31.250,8.301,30.762
1644362059.549,-1.465,32.227,21.973,14.160,19.531
1644362059.553,28.320,31.738,21.484,20.020,46.387
1644362059.557,42.480,26.855,25.879,20.996,39.062
1644362059.561,23.926,28.809,17.578,18.555,23.438
1644362059.532,2.441,32.227,12.207,19.531,46.875
1644362059.536,30.762,32.715,14.648,27.832,56.641
1644362059.540,55.176,36.621,18.555,31.738,75.195
1644362059.544,31.250,37.598,24.902,24.414,86.914
1644362059.548,2.930,32.227,30.762,14.648,0.488
1644362059.552,12.695,27.344,27.344,20.020,36.621
1644362059.555,39.551,27.832,24.414,32.227,77.637
1644362059.559,32.715,35.645,28.320,29.297,31.250
1644362059.563,-3.906,34.668,26.855,19.043,30.273
1644362059.567,-2.441,30.762,22.461,16.602,25.879
1644362059.571,31.250,35.645,26.855,22.461,54.199
1644362059.575,32.715,29.785,31.250,24.902,77.637
1644362059.580,9.277,25.391,30.762,27.832,56.152
1644362059.584,2.441,33.203,32.715,25.879,33.203
1644362059.588,22.949,35.156,37.109,23.438,3.418
1644362059.592,36.621,29.297,39.062,19.531,-4.883
1644362059.596,18.066,27.344,36.621,17.090,24.414
1644362059.600,-0.977,21.973,31.738,16.113,41.016
1644362059.603,17.090,23.926,21.484,19.531,24.902
1644362059.607,46.875,32.227,14.648,26.855,4.395
1644362059.611,41.016,27.832,16.602,21.484,10.742
1644362059.615,15.137,29.785,22.461,25.879,51.758
1644362059.619,16.602,37.598,29.297,32.227,77.148
1644362059.623,44.434,28.809,38.574,31.738,36.133
1644362059.654,41.016,22.461,35.645,34.180,39.062
1644362059.658,10.254,32.715,26.367,31.738,27.832
1644362059.662,8.301,37.109,28.809,22.461,-38.574
1644362059.666,38.086,32.715,23.438,25.879,-41.016
1644362059.670,47.363,28.320,18.555,28.809,-5.371
1644362059.674,15.625,30.762,22.461,18.555,-4.883
1644362059.677,0.000,31.250,20.508,18.066,-2.441
1644362059.681,19.531,28.320,12.207,16.113,14.648
1644362059.685,35.156,28.320,21.973,10.742,43.945
1644362059.689,12.695,28.320,30.273,15.137,77.148
1644362059.693,-10.742,24.414,21.973,10.254,74.219
1644362059.697,9.766,25.879,21.973,5.371,94.238
1644362059.682,40.039,34.668,23.926,15.625,12.207
1644362059.686,28.320,31.738,19.531,15.137,-12.207
1644362059.690,-1.953,21.484,19.043,-0.977,30.762
1644362059.694,7.324,27.344,20.020,1.953,-36.621
1644362059.698,34.180,36.621,19.043,3.906,-18.555
1644362059.702,34.668,33.203,12.695,-6.836,37.109
1644362059.705,6.836,30.273,10.254,-7.324,44.434
1644362059.709,-9.277,24.902,12.207,-6.836,44.922
1644362059.713,11.719,19.531,21.973,-3.418,29.785
1644362059.717,27.832,25.391,31.738,2.441,35.645
1644362059.721,6.836,30.273,23.926,-0.977,36.133
1644362059.725,-12.207,23.926,25.391,0.977,6.836
1644362059.728,7.812,16.113,35.645,10.254,17.578
1644362059.732,33.203,18.066,30.762,14.160,42.969
1644362059.736,17.090,20.996,25.391,17.090,18.555
1644362059.740,-13.184,20.020,30.273,26.367,25.391
1644362059.744,0.000,21.973,29.785,24.902,48.340
1644362059.748,31.250,19.043,30.762,24.902,16.113
1644362059.751,16.113,22.949,25.391,27.832,-5.371
1644362059.755,-15.625,33.691,13.672,15.625,-12.207
1644362059.759,-3.418,37.109,17.578,10.742,-30.762
1644362059.763,29.297,27.344,24.414,16.602,34.668
1644362059.767,30.273,20.996,25.391,20.996,54.199
1644362059.771,3.418,27.344,31.250,22.949,43.945
1644362059.788,-3.906,27.344,34.668,13.672,70.312
1644362059.792,29.785,21.484,31.250,15.625,28.320
1644362059.796,45.410,23.438,24.414,18.555,52.246
1644362059.800,18.555,30.762,21.973,15.625,27.832
1644362059.804,3.418,35.156,23.926,17.090,1.465
1644362059.808,29.297,32.227,19.531,12.695,56.152
1644362059.811,46.875,23.926,13.184,11.719,55.664
1644362059.815,28.320,23.926,17.090,16.602,40.527
1644362059.819,4.395,25.879,25.879,10.254,33.691
1644362059.823,16.113,26.367,28.809,10.254,24.902
1644362059.827,43.457,29.785,28.320,15.625,23.438
1644362059.831,28.320,20.508,25.391,8.789,28.809
1644362059.819,-3.906,16.602,24.414,10.254,44.434
1644362059.823,-5.859,33.203,28.320,14.648,42.969
1644362059.827,23.438,28.809,26.855,20.508,25.879
1644362059.831,31.738,24.902,25.391,31.738,20.508
1644362059.835,0.000,37.598,26.367,23.926,11.230
1644362059.839,-6.836,33.203,27.832,18.066,6.348
1644362059.842,18.066,26.367,22.949,19.531,79.102
1644362059.846,33.203,28.320,13.184,19.531,66.406
1644362059.850,8.789,26.367,13.184,25.879,21.484
1644362059.854,-20.508,21.973,24.414,20.508,46.387
1644362059.858,1.465,23.926,34.668,19.043,29.785
1644362059.862,33.691,25.391,35.156,24.414,33.203
1644362059.953,22.949,23.926,33.691,18.555,29.297
1644362059.957,-3.418,28.809,27.832,15.625,49.316
1644362059.961,8.789,29.785,22.949,19.531,24.902
1644362059.965,36.621,24.902,25.391,22.949,-38.574
1644362059.969,32.227,24.902,24.902,13.672,32.227
1644362059.973,0.000,24.414,24.414,5.371,29.297
1644362059.976,-6.348,28.809,14.160,6.348,-2.441
1644362059.980,24.414,36.621,11.230,8.789,63.477
1644362059.984,39.062,39.551,23.438,14.648,73.730
1644362059.988,6.348,35.645,24.414,17.090,39.551
1644362059.992,-10.254,34.180,19.531,18.066,-2.441
1644362059.996,14.160,34.180,25.879,11.719,-1.465
1644362059.957,37.598,35.645,31.250,13.184,-3.906
1644362059.961,26.367,34.668,29.297,14.160,-4.883
1644362059.965,1.953,31.738,24.414,14.648,22.461
1644362059.969,18.066,28.320,20.508,21.484,32.715
1644362059.973,41.504,24.414,14.648,17.578,37.109
1644362059.977,32.715,26.855,12.695,16.602,65.918
1644362059.980,3.906,37.598,20.996,15.625,64.453
1644362059.984,-0.977,40.039,24.902,12.695,59.570
1644362059.988,28.809,33.691,28.809,20.020,67.383
1644362059.992,38.086,30.762,32.227,25.391,47.852
1644362059.996,10.254,19.043,29.297,15.625,6.836
1644362060.000,-0.488,10.742,27.832,12.207,-1.465
1644362059.986,31.738,23.438,28.809,23.438,22.461
1644362059.990,44.922,28.320,26.855,24.414,37.109
1644362059.994,15.625,22.949,21.484,14.648,41.016
1644362059.998,0.488,22.461,23.926,18.066,42.480
1644362060.002,27.832,20.020,26.855,22.949,64.453
1644362060.006,54.199,25.391,20.996,17.578,58.594
1644362060.009,34.668,36.621,24.902,17.090,38.574
1644362060.013,3.906,31.738,27.344,11.719,46.875
1644362060.017,16.602,25.391,24.414,16.113,47.852
1644362060.021,42.480,28.809,30.762,21.484,36.621
1644362060.025,39.551,27.344,35.645,15.625,47.363
1644362060.029,13.672,23.926,32.227,16.602,61.523
1644362060.013,15.137,25.879,34.668,19.531,48.828
1644362060.017,44.434,23.926,30.273,25.391,16.113
1644362060.021,52.734,20.020,22.461,21.484,37.109
1644362060.025,25.879,12.207,29.297,12.695,47.363
1644362060.029,12.695,4.883,31.738,13.672,-9.277
1644362060.033,33.691,9.766,31.250,18.555,19.043
1644362060.036,45.898,27.344,28.320,15.137,15.137
1644362060.040,20.508,37.109,28.320,14.160,13.184
1644362060.044,-5.859,39.551,27.832,15.625,33.691
1644362060.048,13.672,37.109,24.414,15.137,25.391
1644362060.052,39.551,35.156,20.020,18.555,28.320
1644362060.056,25.391,33.203,20.996,20.508,12.207
1644362060.057,-1.465,26.367,16.602,12.695,56.152
1644362060.061,9.766,27.344,13.184,3.418,50.293
1644362060.065,41.016,26.855,23.438,5.371,34.180
1644362060.069,37.109,20.508,19.043,8.789,48.828
1644362060.073,9.277,18.066,16.113,5.371,36.133
1644362060.077,6.348,17.578,25.391,11.230,40.527
1644362060.080,35.156,23.926,21.973,17.578,-16.113
1644362060.084,48.340,30.273,17.578,13.672,-4.883
1644362060.088,16.113,30.762,9.277,9.766,49.316
1644362060.092,-13.184,28.809,6.348,2.930,2.930
1644362060.096,6.836,27.832,19.043,-5.371,9.277
1644362060.100,23.926,21.973,25.391,0.000,55.176
1644362060.102,0.488,20.508,20.508,2.441,23.438
1644362060.106,-18.066,21.973,12.695,2.441,-27.832
1644362060.110,2.441,20.020,9.766,10.254,47.852
1644362060.114,28.320,21.484,16.602,19.531,56.152
1644362060.118,21.484,15.625,23.926,20.020,-34.180
1644362060.122,-5.859,13.184,22.949,16.602,1.465
1644362060.125,0.000,23.926,14.648,18.555,48.340
1644362060.129,32.715,26.367,17.578,22.949,25.391
1644362060.133,33.203,24.414,25.879,19.531,25.879
1644362060.137,0.000,18.555,27.344,8.301,38.086
1644362060.141,-4.395,15.137,23.926,8.789,22.949
1644362060.145,16.113,20.508,15.625,13.184,9.766
1644362060.150,26.367,25.391,9.277,8.301,40.527
1644362060.154,9.277,26.367,16.113,6.348,68.359
1644362060.158,-4.883,24.902,25.391,7.324,30.273
1644362060.162,20.020,28.809,28.809,9.277,45.410
1644362060.166,35.645,23.926,23.438,17.578,55.176
1644362060.170,20.020,18.555,18.066,28.809,38.574
1644362060.173,-1.953,21.973,20.996,27.832,77.637
1644362060.177,16.113,22.461,29.297,28.320,73.242
1644362060.181,38.574,17.090,29.785,34.180,41.992
1644362060.185,21.484,18.555,22.949,27.832,5.859
1644362060.189,-3.906,26.367,22.949,19.531,4.395
1644362060.193,2.441,20.508,31.250,16.113,46.387
1644362060.193,33.691,11.719,34.180,23.926,36.621
1644362060.197,30.273,24.902,32.715,20.996,57.617
1644362060.201,-5.371,36.621,32.715,8.301,80.078
1644362060.205,-13.184,29.297,30.762,11.719,58.105
1644362060.209,15.137,28.809,27.344,18.066,102.051
1644362060.213,26.855,33.203,20.996,8.789,77.637
1644362060.216,2.441,30.273,23.438,-0.488,34.180
1644362060.220,-7.324,28.320,26.855,4.395,14.648
1644362060.224,18.555,30.273,24.902,17.090,9.277
1644362060.228,41.504,26.855,26.855,20.508,44.922
1644362060.232,29.297,30.762,20.020,11.230,68.359
1644362060.236,-1.953,32.227,18.066,7.812,2.441
1644362060.267,6.836,26.855,23.926,6.348,-1.953
1644362060.271,37.598,30.273,20.020,6.836,35.645
1644362060.275,31.738,31.250,22.949,10.742,18.555
1644362060.279,1.953,32.715,32.227,5.859,17.578
1644362060.283,0.488,37.109,31.250,-1.953,15.137
1644362060.287,24.414,36.621,22.461,13.672,29.785
1644362060.290,33.691,32.715,16.602,16.113,27.832
1644362060.294,7.324,25.879,24.414,-2.441,7.812
1644362060.298,-10.254,20.996,30.762,0.488,-17.090
1644362060.302,20.020,20.996,25.391,15.625,-36.133
1644362060.306,46.387,26.367,20.020,17.090,-13.672
1644362060.310,17.578,25.391,18.066,7.812,23.438
1644362060.313,-9.277,25.879,18.555,6.836,29.785
1644362060.317,11.230,31.738,24.902,12.207,0.977
1644362060.321,32.227,32.715,30.762,6.348,-16.602
1644362060.325,20.020,24.414,32.227,5.371,11.230
1644362060.329,-9.277,24.414,28.809,15.625,48.828
1644362060.333,-3.418,29.785,21.973,12.207,67.871
1644362060.336,30.762,26.855,18.555,6.836,11.719
1644362060.340,31.738,28.809,16.602,9.277,-8.789
1644362060.344,0.488,19.531,14.160,6.836,75.195
1644362060.348,-5.371,7.812,13.672,9.277,37.598
1644362060.352,23.926,14.160,18.066,18.066,-8.301
1644362060.356,34.668,25.879,27.832,15.625,61.035
1644362060.329,5.859,23.438,32.227,12.207,57.129
1644362060.333,-14.648,22.949,30.273,5.371,-14.160
1644362060.337,9.766,20.020,29.785,9.277,-1.953
1644362060.341,28.809,14.648,22.461,14.160,62.988
1644362060.345,9.766,20.508,15.137,-0.488,40.039
1644362060.349,-11.719,28.320,22.949,5.371,47.363
1644362060.352,7.324,33.691,26.367,11.230,63.477
1644362060.356,35.645,29.297,23.926,9.277,60.547
1644362060.360,22.949,26.855,22.461,14.648,45.410
1644362060.364,-13.672,31.250,18.066,10.254,53.711
1644362060.368,-9.277,33.203,21.973,8.789,23.438
1644362060.372,29.297,28.320,29.297,12.695,16.602
1644362060.388,28.320,23.438,26.855,15.625,50.293
1644362060.392,-3.906,28.809,25.879,8.301,1.953
1644362060.396,-11.719,33.203,32.227,11.230,28.809
1644362060.400,20.508,26.367,36.133,27.832,62.500
1644362060.404,41.992,30.273,34.668,26.855,20.996
1644362060.408,11.719,34.180,27.344,9.766,-14.648
1644362060.411,-15.137,27.832,22.949,0.488,40.039
1644362060.415,7.812,27.344,25.879,11.719,95.215
1644362060.419,31.738,26.367,22.949,17.578,89.844
1644362060.423,11.230,21.484,26.855,12.207,86.914
1644362060.427,-25.391,20.508,35.645,2.441,65.918
1644362060.431,-10.742,21.484,33.691,-0.488,57.617
1644362060.448,24.902,15.137,29.297,7.812,89.355
1644362060.452,20.996,17.578,28.320,19.043,86.426
1644362060.456,-3.418,28.320,31.250,15.137,19.043
1644362060.460,5.371,30.762,35.645,6.348,53.711
1644362060.464,36.621,36.133,25.391,15.137,50.293
1644362060.468,43.457,37.598,15.137,20.996,23.926
1644362060.471,19.531,35.645,31.250,22.461,24.414
1644362060.475,-1.465,32.227,37.109,19.043,-8.789
1644362060.479,23.438,28.809,29.785,15.137,1.465
1644362060.483,41.504,29.297,29.297,12.695,13.672
1644362060.487,18.555,29.785,32.227,16.113,-3.418
1644362060.491,-6.836,26.855,31.738,15.137,58.594
1644362060.477,7.812,28.320,26.367,13.672,43.945
1644362060.481,34.668,31.250,22.949,14.648,11.719
1644362060.485,22.461,29.785,25.391,15.625,85.449
1644362060.489,-0.977,29.297,26.367,18.555,23.438
1644362060.493,3.418,30.273,24.902,16.602,-1.953
1644362060.497,30.273,24.902,25.879,18.066,30.762
1644362060.500,31.738,23.438,25.879,23.438,-13.672
1644362060.504,-0.488,28.809,23.926,15.137,-29.297
1644362060.508,2.930,28.320,20.508,10.254,18.555
1644362060.512,33.691,29.297,9.766,20.996,39.062
1644362060.516,39.551,26.855,14.648,22.461,42.969
1644362060.520,11.230,21.484,28.809,15.625,-4.883
1644362060.524,-4.883,24.414,25.879,13.184,-8.789
1644362060.528,19.043,32.715,28.320,15.137,45.410
1644362060.532,38.574,37.109,32.715,19.531,55.176
1644362060.536,18.066,37.598,31.250,13.184,31.738
1644362060.540,-6.348,37.598,36.133,5.859,-4.883
1644362060.544,11.230,30.273,36.621,9.766,15.137
1644362060.547,38.086,28.809,32.227,17.578,42.480
1644362060.551,31.250,34.668,34.180,15.137,7.812
1644362060.555,7.324,25.879,33.691,7.324,-13.672
1644362060.559,9.277,22.461,27.832,15.137,24.902
1644362060.563,39.551,18.555,27.344,20.996,36.621
1644362060.567,39.062,14.160,29.785,20.020,8.789
1644362060.584,1.465,27.344,30.762,16.113,14.160
1644362060.588,-1.953,37.598,28.809,16.602,27.344
1644362060.592,33.691,36.621,30.273,21.484,9.766
1644362060.596,44.434,33.203,29.785,18.066,7.324
1644362060.600,13.184,33.691,24.414,16.113,-0.977
1644362060.604,-5.371,31.738,23.438,14.648,-9.277
1644362060.607,22.949,28.809,29.785,24.414,16.602
1644362060.611,38.086,32.227,30.273,25.391,55.664
1644362060.615,14.160,31.250,30.762,12.207,89.844
1644362060.619,-8.789,33.203,36.621,12.695,58.594
1644362060.623,4.883,28.809,36.621,20.020,-22.461
1644362060.627,40.039,22.949,33.691,19.531,4.883
1644362060.718,34.180,24.414,29.297,18.555,27.832
1644362060.722,6.348,19.043,26.855,19.043,-11.230
1644362060.726,16.113,23.438,24.902,19.531,-9.277
1644362060.730,45.410,33.691,21.973,20.996,17.090
1644362060.734,49.805,30.273,21.973,25.879,7.812
1644362060.738,29.297,31.738,24.414,26.855,51.270
1644362060.741,14.160,37.598,20.020,24.414,83.008
1644362060.745,30.762,36.133,24.902,31.250,81.055
1644362060.749,49.316,32.227,33.691,33.203,85.938
1644362060.753,20.996,28.320,35.156,30.273,25.391
1644362060.757,-7.324,30.762,39.062,23.438,-40.039
1644362060.761,14.160,35.645,33.691,16.113,-25.879
1644362060.721,37.598,34.180,29.785,17.578,-13.184
1644362060.725,18.066,36.133,33.203,16.602,28.320
1644362060.729,-8.301,38.086,27.344,14.160,1.465
1644362060.733,3.418,35.156,21.973,10.254,7.812
1644362060.737,38.574,34.668,27.832,9.277,68.848
1644362060.741,29.297,30.762,31.250,3.418,84.473
1644362060.744,-8.301,25.391,22.461,-3.906,92.285
1644362060.748,-5.859,30.273,13.672,-5.371,38.086
1644362060.752,30.762,35.645,18.555,-4.883,25.391
1644362060.756,40.039,25.879,34.668,2.441,77.148
1644362060.760,8.789,16.602,37.109,5.371,78.125
1644362060.764,-6.348,26.367,30.273,-1.465,67.871
1644362060.726,18.555,29.785,28.320,2.930,68.848
1644362060.730,35.645,26.367,23.438,8.789,41.504
1644362060.734,13.672,26.855,25.391,6.836,1.465
1644362060.738,-7.812,31.250,26.855,4.883,62.500
1644362060.742,8.789,28.320,17.578,4.883,91.309
1644362060.746,33.203,24.414,16.113,8.301,32.227
1644362060.749,19.531,27.344,20.996,8.301,28.809
1644362060.753,-10.254,27.344,18.555,7.812,-3.906
1644362060.757,2.930,29.297,20.020,8.301,-8.789
1644362060.761,35.156,29.785,29.297,17.090,6.348
1644362060.765,33.691,28.320,28.809,16.113,10.254
1644362060.769,7.324,31.250,21.484,15.137,41.016
1644362060.763,-0.488,32.227,14.648,12.695,47.363
1644362060.767,24.414,26.855,19.043,5.859,12.695
1644362060.771,33.691,23.438,25.391,4.883,10.742
1644362060.775,10.254,19.043,23.438,2.930,55.664
1644362060.779,-7.324,21.484,16.602,5.371,64.941
1644362060.783,18.066,26.367,13.672,14.160,53.711
1644362060.786,42.969,19.043,17.090,16.602,34.180
1644362060.790,18.555,19.043,19.043,11.230,9.766
1644362060.794,-10.254,27.832,23.926,11.230,-12.207
1644362060.798,3.418,33.691,21.973,11.719,53.711
1644362060.802,31.250,35.645,22.949,11.230,72.754
1644362060.806,34.180,35.645,32.715,19.043,34.668
1644362060.807,3.418,36.621,34.180,21.484,28.320
1644362060.811,4.883,35.156,25.879,18.555,11.230
1644362060.815,42.480,27.344,20.996,26.367,46.387
1644362060.819,46.387,26.367,25.879,26.367,58.105
1644362060.823,13.184,23.926,28.320,16.113,36.133
1644362060.827,3.906,19.531,26.855,16.113,25.391
1644362060.830,31.738,26.367,26.367,19.043,26.855
1644362060.834,45.410,34.180,31.738,15.625,45.410
1644362060.838,22.949,31.738,34.180,13.672,40.527
1644362060.842,1.953,25.879,26.367,16.113,4.395
1644362060.846,22.461,24.902,21.484,20.020,22.949
1644362060.850,46.387,26.367,20.508,16.113,5.371
1644362060.887,29.785,32.227,22.461,19.043,-2.930
1644362060.891,-0.977,36.133,28.809,18.555,36.133
1644362060.895,8.789,36.133,30.762,16.602,55.176
1644362060.899,36.133,28.809,21.484,17.090,33.203
1644362060.903,23.438,21.973,20.996,17.090,10.254
1644362060.907,-4.395,23.438,26.855,16.113,62.500
1644362060.910,-5.859,26.367,23.438,16.113,59.082
1644362060.914,27.832,24.902,20.508,22.461,-4.395
1644362060.918,34.668,20.508,19.043,10.254,30.762
1644362060.922,0.000,20.020,16.113,0.488,35.156
1644362060.926,-8.301,24.414,16.602,10.742,55.664
1644362060.930,16.113,23.926,21.484,11.230,56.152
1644362060.958,31.250,23.926,20.508,14.160,7.812
1644362060.962,12.207,22.461,16.113,17.578,31.250
1644362060.966,-15.137,20.996,22.461,8.301,21.484
1644362060.970,6.348,21.484,24.414,10.742,-13.184
1644362060.974,41.504,10.254,21.973,22.461,6.836
1644362060.978,34.668,6.836,21.973,32.715,21.973
1644362060.981,-0.488,23.926,24.902,27.344,-6.836
1644362060.985,5.859,30.762,29.297,24.902,-14.648
1644362060.989,39.551,26.855,26.855,26.855,64.453
1644362060.993,36.133,30.273,21.484,14.648,42.480
1644362060.997,8.789,32.715,23.438,12.695,-45.410
1644362061.001,0.488,28.809,23.926,12.695,-18.066
1644362060.962,18.066,27.832,22.461,14.648,26.367
1644362060.966,31.250,29.297,20.508,22.949,35.156
1644362060.970,11.719,21.973,19.531,20.020,47.852
1644362060.974,-6.836,21.484,11.719,13.672,56.152
1644362060.978,23.438,30.273,5.859,15.137,48.340
1644362060.982,49.805,27.832,15.137,20.508,21.484
1644362060.985,26.367,24.414,21.973,16.113,71.289
1644362060.989,-6.348,25.879,21.484,13.184,68.848
1644362060.993,9.766,27.832,21.973,21.484,38.086
1644362060.997,41.016,25.879,23.438,23.926,36.621
1644362061.001,34.668,20.508,29.297,25.879,8.301
1644362061.005,5.371,24.414,31.250,22.949,-4.883
1644362061.017,-2.930,29.297,25.879,23.438,-3.906
1644362061.021,32.715,26.367,20.020,29.297,20.508
1644362061.025,41.992,27.344,21.484,23.438,36.621
1644362061.029,9.277,21.973,25.391,15.625,-5.371
1644362061.033,9.766,17.578,23.926,24.414,41.016
1644362061.037,32.227,25.879,21.484,32.715,68.359
1644362061.040,44.434,29.297,20.508,20.508,68.359
1644362061.044,24.902,30.273,23.926,11.719,122.559
1644362061.048,0.977,29.785,16.113,15.137,58.594
1644362061.052,19.043,31.250,7.812,14.648,29.785
1644362061.056,43.945,33.691,24.902,16.602,44.434
1644362061.060,22.949,31.250,32.715,7.324,-9.277
1644362061.032,-7.812,23.438,24.414,-0.977,-29.785
1644362061.036,5.859,16.602,22.949,11.719,-0.977
1644362061.040,35.156,28.809,23.438,14.160,37.109
1644362061.044,26.367,39.062,20.020,6.836,46.875
1644362061.048,-3.418,39.551,16.602,13.672,42.969
1644362061.052,6.348,39.062,20.020,17.090,12.207
1644362061.055,40.527,33.691,24.414,13.184,-1.465
1644362061.059,43.457,28.809,23.438,17.578,46.875
1644362061.063,4.395,27.344,18.555,18.066,2.930
1644362061.067,-15.625,29.297,15.625,18.555,-37.109
1644362061.071,19.531,24.414,14.648,23.438,0.000
1644362061.075,38.574,20.996,14.160,24.414,23.438
1644362061.111,10.742,35.645,25.391,15.625,76.172
1644362061.115,-6.836,37.598,36.621,16.602,36.621
1644362061.119,18.555,27.832,30.273,19.043,18.066
1644362061.123,41.992,26.855,25.879,20.020,52.246
1644362061.127,24.414,26.855,29.785,23.926,18.066
1644362061.131,-7.324,26.855,29.297,17.578,13.672
1644362061.134,3.906,30.273,25.391,14.648,46.875
1644362061.138,29.785,32.715,22.461,17.090,104.980
1644362061.142,25.879,31.250,28.320,23.926,51.270
1644362061.146,2.930,26.855,32.715,24.414,44.922
1644362061.150,-1.953,22.461,30.273,17.578,95.215
1644362061.154,28.320,23.926,27.832,22.461,46.387
1644362061.153,37.598,21.973,22.949,21.973,59.082
1644362061.157,16.113,20.996,14.648,13.672,68.848
1644362061.161,-1.465,26.367,16.113,12.695,-5.859
1644362061.165,11.719,24.902,29.785,14.160,12.207
1644362061.169,34.668,17.578,36.133,14.160,75.195
1644362061.173,17.578,20.020,28.320,10.742,25.879
1644362061.176,-12.207,18.066,23.926,10.254,-21.973
1644362061.180,7.812,13.184,28.320,10.254,-8.301
1644362061.184,32.715,27.832,28.320,17.578,10.254
1644362061.188,19.043,36.621,25.879,11.230,-8.301
1644362061.192,-11.230,31.250,25.391,-2.930,32.227
1644362061.196,-1.465,31.738,25.391,7.324,24.902
1644362061.182,28.809,36.133,26.367,5.371,14.160
1644362061.186,20.508,33.691,28.320,-3.906,21.484
1644362061.190,-4.883,28.320,25.879,5.859,37.109
1644362061.194,-9.277,22.461,16.602,8.301,63.965
1644362061.198,25.879,25.391,17.090,9.766,38.086
1644362061.202,48.340,27.344,29.297,18.066,23.926
1644362061.205,19.043,21.973,37.598,16.602,-5.859
1644362061.209,-2.930,23.926,39.062,15.137,16.602
1644362061.213,18.555,24.414,37.109,18.555,7.324
1644362061.217,40.039,29.785,33.203,15.625,-10.254
1644362061.221,19.043,34.180,26.855,4.883,61.035
1644362061.225,-9.766,30.762,26.855,1.953,60.547
1644362061.273,10.742,32.227,29.785,5.859,25.391
1644362061.277,40.039,27.344,26.367,9.766,48.828
1644362061.281,25.879,11.230,26.855,7.812,54.199
1644362061.285,-1.953,15.625,23.926,7.812,20.996
1644362061.289,-1.953,30.762,17.090,17.090,53.223
1644362061.293,25.879,34.668,19.531,19.043,27.344
1644362061.296,32.227,28.809,15.137,14.160,10.742
1644362061.300,0.000,23.438,17.090,11.719,11.230
1644362061.304,-16.113,29.785,26.855,10.254,-4.883
1644362061.308,22.461,27.344,25.879,12.207,56.641
1644362061.312,46.875,22.461,25.879,12.207,7.812
1644362061.316,13.672,28.809,23.438,4.395,-46.875
1644362061.277,-8.301,31.250,18.555,3.418,24.902
1644362061.281,10.742,29.785,18.066,9.277,35.645
1644362061.285,34.180,27.832,20.508,11.719,14.648
1644362061.289,25.391,25.391,21.484,14.160,28.809
1644362061.293,2.441,27.344,21.973,14.160,28.320
1644362061.297,9.766,27.832,22.949,13.184,79.102
1644362061.300,37.109,25.391,18.555,17.578,86.914
1644362061.304,37.109,25.391,20.996,12.207,1.465
1644362061.308,8.789,33.203,25.879,12.207,41.016
1644362061.312,-2.441,36.133,27.344,13.184,73.730
1644362061.316,24.414,28.809,26.367,16.113,8.789
1644362061.320,40.527,19.043,29.785,26.367,-17.090
1644362061.319,13.672,25.391,28.809,18.555,48.340
1644362061.323,-2.441,33.691,21.484,8.789,50.781
1644362061.327,29.785,39.062,22.949,15.137,13.672
1644362061.331,49.316,45.410,24.902,22.461,-0.488
1644362061.335,23.438,43.945,22.461,16.113,6.836
1644362061.339,4.883,37.598,25.879,13.184,28.320
1644362061.342,25.879,32.227,28.809,20.020,28.320
1644362061.346,42.969,26.855,29.785,14.648,43.945
1644362061.350,27.344,22.949,29.785,6.836,47.363
1644362061.354,3.906,27.832,20.508,7.812,35.645
1644362061.358,3.906,34.180,18.555,22.461,-13.184
1644362061.362,20.996,31.250,25.879,22.949,38.574
1644362061.362,21.973,20.996,28.320,8.789,64.453
1644362061.366,-1.953,24.902,25.879,12.207,46.875
1644362061.370,-3.906,34.180,22.461,13.672,104.492
1644362061.374,28.320,37.598,24.902,12.695,78.613
1644362061.378,41.504,36.133,23.926,17.090,21.484
1644362061.382,13.672,34.668,25.879,18.066,4.883
1644362061.385,-9.766,26.855,33.203,10.742,9.766
1644362061.389,10.742,16.113,30.273,4.395,36.621
1644362061.393,31.738,27.344,24.902,11.719,48.340
1644362061.397,12.695,38.086,28.809,21.973,64.453
1644362061.401,-7.812,35.645,28.809,18.066,52.246
1644362061.405,10.254,33.203,21.484,12.695,71.289
1644362061.438,41.504,32.715,17.578,21.484,70.312
1644362061.442,28.809,31.738,20.996,26.367,54.688
1644362061.446,-1.465,29.297,29.785,25.879,42.480
1644362061.450,5.859,27.344,30.273,25.879,28.320
1644362061.454,30.273,29.297,25.879,27.832,24.414
1644362061.458,28.809,30.762,26.855,31.738,24.414
1644362061.461,0.000,26.855,31.250,25.879,35.156
1644362061.465,-4.395,22.949,34.668,22.949,25.391
1644362061.469,31.738,22.461,40.039,31.250,3.906
1644362061.473,49.316,22.949,41.016,32.227,17.090
1644362061.477,19.531,24.414,34.180,26.367,44.922
1644362061.481,-7.324,27.832,30.273,17.090,24.902
1644362061.467,9.277,27.832,25.879,17.578,60.059
1644362061.471,32.227,25.879,19.043,24.414,72.266
1644362061.475,21.484,20.508,15.137,20.020,-18.066
1644362061.479,0.488,20.020,22.949,17.578,-20.508
1644362061.483,19.043,26.367,29.297,24.414,-11.230
1644362061.487,46.387,32.227,28.809,21.973,30.273
1644362061.490,36.621,32.227,33.691,17.578,30.762
1644362061.494,6.836,26.855,36.133,14.160,16.602
1644362061.498,9.277,27.344,30.273,11.230,47.852
1644362061.502,38.574,24.902,23.438,15.625,16.602
1644362061.506,34.668,23.438,22.461,16.113,-24.414
1644362061.510,0.977,31.738,31.250,13.672,-22.949
1644362061.512,-5.859,35.156,28.809,9.766,6.836
1644362061.516,18.555,29.785,23.438,7.324,52.246
1644362061.520,41.016,27.832,25.879,7.812,57.129
1644362061.524,26.367,30.273,23.438,6.836,-16.113
1644362061.528,-7.812,28.809,27.832,10.254,23.438
1644362061.532,12.207,18.066,29.297,20.020,47.852
1644362061.535,41.992,19.531,27.832,15.625,47.363
1644362061.539,27.344,32.227,30.273,12.695,54.688
1644362061.543,-5.859,37.598,31.738,18.555,16.113
1644362061.547,-1.953,38.086,32.227,15.625,27.832
1644362061.551,33.203,32.715,25.879,18.066,59.082
1644362061.555,35.156,29.785,23.926,22.949,26.367
1644362061.557,4.883,31.738,30.762,17.090,-0.488
1644362061.561,2.930,32.715,33.203,26.855,46.875
1644362061.565,38.086,29.297,33.691,30.762,51.758
1644362061.569,43.945,26.367,30.762,23.438,26.367
1644362061.573,11.230,22.949,30.762,19.531,41.016
1644362061.577,-1.953,17.090,36.621,14.160,55.176
1644362061.580,27.344,21.484,30.762,17.090,38.086
1644362061.584,46.387,22.949,22.949,19.531,-10.254
1644362061.588,25.391,20.996,20.508,10.254,20.996
1644362061.592,4.883,22.461,20.020,5.371,33.691
1644362061.596,15.625,13.672,18.555,9.277,4.883
1644362061.600,38.086,6.348,19.043,13.672,29.785
1644362061.648,25.391,23.926,20.508,11.230,34.180
1644362061.652,-3.418,31.738,15.625,2.441,26.855
1644362061.656,2.441,25.391,19.043,5.859,24.902
1644362061.660,28.320,21.973,20.996,16.113,30.273
1644362061.664,31.250,15.137,16.113,17.578,24.902
1644362061.668,0.000,14.648,20.996,15.137,56.152
1644362061.671,-4.883,29.297,25.391,15.625,60.059
1644362061.675,30.762,36.133,25.391,20.020,-2.441
1644362061.679,44.922,33.203,26.855,19.531,-0.488
1644362061.683,20.020,34.180,24.902,12.207,-2.441
1644362061.687,4.883,32.715,20.508,7.812,-32.227
1644362061.691,21.484,24.902,18.066,9.766,20.020
1644362061.652,38.574,21.973,14.160,9.277,84.473
1644362061.656,21.973,21.484,13.672,2.441,59.570
1644362061.660,-5.859,17.578,19.043,2.930,-0.977
1644362061.664,9.277,20.508,17.090,2.441,9.277
1644362061.668,39.062,28.809,14.160,5.371,17.090
1644362061.672,29.297,23.926,18.066,18.066,48.340
1644362061.675,3.418,17.090,15.137,18.066,34.180
1644362061.679,5.859,30.762,18.066,13.672,14.648
1644362061.683,31.250,37.598,21.973,19.531,51.270
1644362061.687,29.785,38.574,23.926,25.879,4.883
1644362061.691,9.766,42.969,28.320,24.902,9.277
1644362061.695,13.672,37.598,25.879,27.832,19.043
1644362061.693,45.898,30.762,23.438,35.156,-6.836
1644362061.697,55.664,26.855,23.926,36.133,34.668
1644362061.701,25.879,21.484,26.367,28.809,55.664
1644362061.705,8.301,20.508,28.320,22.949,73.730
1644362061.709,23.926,16.113,24.902,24.414,86.914
1644362061.713,37.109,16.602,26.367,21.484,67.383
1644362061.716,18.066,23.438,29.785,8.301,35.156
1644362061.720,-9.277,26.367,25.879,-4.883,15.137
1644362061.724,-2.930,24.902,30.762,-9.277,45.410
1644362061.728,23.926,23.438,30.273,0.488,85.449
1644362061.732,20.996,24.414,24.902,5.859,21.973
1644362061.736,-10.254,14.648,30.762,2.930,-3.418
1644362061.786,-11.719,11.719,27.832,13.672,21.484
1644362061.790,20.996,23.438,23.926,21.484,49.805
1644362061.794,24.902,25.879,29.297,20.508,90.820
1644362061.798,-9.277,24.414,28.809,20.508,56.152
1644362061.802,-18.555,23.438,27.344,19.043,8.789
1644362061.806,15.625,25.879,30.273,26.367,50.293
1644362061.809,32.715,25.879,28.320,23.438,127.930
1644362061.813,7.812,16.113,27.832,11.230,66.895
1644362061.817,-10.742,16.113,24.902,9.277,24.414
1644362061.821,10.742,23.926,20.996,10.254,-30.762
1644362061.825,36.621,28.809,22.461,9.766,-13.672
1644362061.829,28.809,28.809,17.578,2.930,49.316
1644362061.791,2.930,21.484,18.066,1.953,35.645
1644362061.795,8.789,21.973,22.461,11.719,20.508
1644362061.799,39.551,27.832,23.438,17.090,-8.301
1644362061.803,36.133,31.250,29.297,14.160,22.461
1644362061.807,-0.977,29.785,28.809,4.395,-2.441
1644362061.811,2.441,27.344,23.926,1.953,-20.508
1644362061.814,40.039,25.391,22.461,8.789,46.875
1644362061.818,38.086,21.973,20.508,14.160,49.805
1644362061.822,2.930,22.949,22.949,10.742,38.086
1644362061.826,-9.277,24.902,26.855,12.207,44.434
1644362061.830,22.461,25.879,24.902,21.484,53.223
1644362061.834,42.480,35.645,21.484,28.809,41.992
1644362061.843,23.926,37.109,19.043,21.484,3.418
1644362061.847,6.348,34.180,23.926,17.090,21.484
1644362061.851,15.137,35.156,29.785,19.043,74.707
1644362061.855,37.109,28.809,25.879,20.508,59.082
1644362061.859,29.785,30.273,20.508,23.926,0.000
1644362061.863,-2.441,35.645,20.020,16.113,-41.016
1644362061.866,-3.906,33.691,19.043,9.277,-35.156
1644362061.870,31.250,31.738,19.531,9.766,-4.395
1644362061.874,37.109,34.668,22.461,13.184,9.766
1644362061.878,0.488,30.273,25.391,19.043,3.418
1644362061.882,0.488,26.367,25.391,17.090,29.785
1644362061.886,30.762,18.555,25.879,24.414,2.441
1644362061.887,41.016,21.973,27.344,28.320,-7.324
1644362061.891,14.160,33.203,29.785,24.902,9.766
1644362061.895,-5.859,28.320,30.762,26.367,20.020
1644362061.899,19.531,23.926,25.391,30.273,39.551
1644362061.903,42.969,30.273,23.926,32.715,54.199
1644362061.907,24.414,30.273,28.320,32.227,56.152
1644362061.910,-4.395,20.508,31.250,27.832,59.082
1644362061.914,3.906,22.461,32.227,21.973,59.570
1644362061.918,29.785,23.438,26.855,27.832,35.156
1644362061.922,25.879,29.297,25.391,18.555,63.477
1644362061.926,-1.953,41.504,28.809,7.324,39.551
1644362061.930,-1.465,39.062,30.762,12.695,30.273
1644362062.083,34.668,32.715,33.203,17.578,66.406
1644362062.087,47.363,38.574,32.227,21.973,47.852
1644362062.091,17.578,41.992,30.273,19.043,25.391
1644362062.095,6.836,39.062,28.320,12.695,45.410
1644362062.099,26.367,36.621,23.438,12.207,33.691
1644362062.103,41.504,32.715,23.926,10.742,38.086
1644362062.106,24.902,35.156,26.367,1.953,66.895
1644362062.110,0.488,36.133,21.484,2.930,56.152
1644362062.114,15.137,29.785,19.043,4.883,11.719
1644362062.118,32.715,20.020,26.367,1.465,1.465
1644362062.122,20.996,24.902,27.344,8.789,64.453
1644362062.126,-2.441,34.668,26.855,7.324,82.031
1644362062.087,3.418,33.203,27.344,8.301,68.359
1644362062.091,30.762,29.785,20.508,14.648,61.523
1644362062.095,25.391,30.273,21.973,15.625,57.617
1644362062.099,-8.301,21.484,30.273,15.625,86.914
1644362062.103,-7.324,17.090,27.344,13.184,20.020
1644362062.107,30.762,33.203,22.949,16.113,-20.508
1644362062.110,39.062,36.133,22.949,17.090,34.180
1644362062.114,2.930,28.320,24.902,11.719,42.969
1644362062.118,-13.184,28.809,22.949,11.719,55.664
1644362062.122,18.555,31.738,23.438,19.043,23.438
1644362062.126,34.668,33.203,27.832,10.742,20.996
1644362062.130,14.648,32.227,26.855,1.953,48.828
1644362062.101,-4.883,27.344,23.438,2.441,-1.953
1644362062.105,4.883,28.809,23.438,2.930,-40.039
1644362062.109,35.645,32.227,23.438,10.742,22.461
1644362062.113,32.715,35.645,24.414,17.090,21.484
1644362062.117,-2.441,31.250,24.414,11.719,5.371
1644362062.121,0.488,20.020,28.320,11.719,32.715
1644362062.124,28.809,18.555,34.668,10.742,44.434
1644362062.128,27.832,22.949,32.227,4.395,13.672
1644362062.132,-5.371,27.832,25.879,0.000,-23.438
1644362062.136,-14.160,27.344,18.555,2.930,15.137
1644362062.140,12.695,23.926,18.555,7.812,-2.441
1644362062.144,24.902,24.902,24.414,10.254,11.230
1644362062.104,2.441,16.602,24.414,4.883,-11.719
1644362062.108,-21.484,7.324,17.578,3.418,-33.691
1644362062.112,3.906,14.648,13.672,7.324,23.438
1644362062.116,33.691,20.508,16.602,7.812,25.391
1644362062.120,16.113,29.785,17.578,-0.488,31.738
1644362062.124,-8.789,32.227,20.020,0.000,41.992
1644362062.127,7.812,22.949,20.996,8.301,-10.254
1644362062.131,36.133,22.461,19.531,13.184,-1.465
1644362062.135,24.414,24.414,22.461,12.207,30.273
1644362062.139,-7.324,22.461,27.344,7.812,-20.996
1644362062.143,0.977,27.344,29.297,15.137,49.316
1644362062.147,39.062,26.855,24.414,20.996,143.555
1644362062.160,41.992,23.926,23.438,26.367,69.336
1644362062.164,1.953,22.949,27.344,23.926,56.152
1644362062.168,-10.254,24.414,27.344,16.602,2.930
1644362062.172,24.902,26.367,25.391,20.020,4.883
1644362062.176,46.387,29.297,24.902,22.949,30.762
1644362062.180,20.996,35.645,25.879,14.160,21.973
1644362062.183,3.418,31.738,28.320,10.742,41.992
1644362062.187,30.273,13.672,29.785,18.066,58.594
1644362062.191,43.945,14.648,29.297,18.555,69.824
1644362062.195,19.043,36.133,23.438,7.324,48.828
1644362062.199,-4.883,42.480,24.414,3.418,44.922
1644362062.203,12.695,35.156,34.668,9.766,31.738
1644362062.164,45.410,31.250,33.203,17.578,40.527
1644362062.168,38.574,31.250,29.297,17.578,28.320
1644362062.172,-0.488,27.832,33.203,17.578,60.547
1644362062.176,-5.371,24.902,34.668,12.207,42.480
1644362062.180,26.855,23.438,30.273,13.184,33.691
1644362062.184,40.039,24.902,25.879,20.020,91.797
1644362062.187,8.301,29.297,26.367,14.160,58.105
1644362062.191,-8.789,33.691,26.855,13.672,17.578
1644362062.195,20.508,34.180,23.438,17.578,44.922
1644362062.199,41.992,22.949,27.344,14.648,58.105
1644362062.203,11.719,21.973,31.738,13.672,44.434
1644362062.207,-13.184,30.273,20.020,10.742,25.391
1644362062.217,11.719,28.809,15.137,11.230,21.973
1644362062.221,38.574,27.832,25.391,13.672,78.613
1644362062.225,26.855,25.879,27.832,14.160,49.805
1644362062.229,-2.930,22.949,25.391,10.742,-11.719
1644362062.233,2.930,22.949,24.902,9.766,22.949
1644362062.237,30.762,23.438,26.367,14.160,39.551
1644362062.240,25.879,24.902,23.926,5.371,46.875
1644362062.244,-10.254,22.949,23.926,-4.395,55.176
1644362062.248,-18.066,17.578,30.762,-5.859,43.457
1644362062.252,10.254,16.113,33.691,7.324,24.902
1644362062.256,22.949,22.949,29.785,13.672,53.223
1644362062.260,-2.930,27.832,24.902,12.207,56.641
1644362062.262,-16.602,26.367,30.762,17.578,0.488
1644362062.266,14.648,26.855,29.297,20.996,-4.883
1644362062.270,44.434,29.785,14.160,22.461,28.320
1644362062.274,23.438,33.203,14.648,18.555,79.102
1644362062.278,-2.930,35.645,21.484,10.254,77.148
1644362062.282,22.461,38.574,22.461,13.184,52.734
1644362062.285,49.316,27.832,25.879,23.438,27.344
1644362062.289,34.668,24.414,25.391,18.066,28.320
1644362062.293,8.789,34.180,25.391,7.812,10.742
1644362062.297,12.695,29.785,23.438,3.418,-5.371
1644362062.301,35.156,31.738,19.043,9.277,21.484
1644362062.305,34.668,34.180,13.672,16.113,42.969
1644362062.308,4.395,30.273,6.348,12.695,34.180
1644362062.312,-2.930,30.762,13.184,15.137,62.012
1644362062.316,33.691,28.320,25.879,20.020,77.148
1644362062.320,44.434,30.273,22.949,18.555,41.504
1644362062.324,14.160,37.598,16.113,10.254,42.480
1644362062.328,-3.418,37.598,16.113,10.742,51.270
1644362062.331,15.625,28.320,16.602,12.695,25.879
1644362062.335,39.062,21.973,20.020,8.301,13.672
1644362062.339,27.344,23.926,25.879,2.930,44.434
1644362062.343,2.441,24.414,28.809,-0.488,26.367
1644362062.347,9.277,22.461,26.855,0.000,-15.137
1644362062.351,40.039,17.578,26.367,5.371,-23.926
1644362062.520,36.621,12.207,27.344,14.648,66.895
1644362062.524,5.859,25.391,25.879,13.184,71.289
1644362062.528,6.348,39.062,24.902,11.230,20.508
1644362062.532,33.203,38.086,20.020,18.555,31.738
1644362062.536,38.574,34.668,14.648,19.531,94.238
1644362062.540,6.348,32.715,19.531,18.555,79.102
1644362062.543,5.859,30.273,21.973,27.832,43.457
1644362062.547,41.016,27.832,25.391,27.344,43.945
1644362062.551,42.969,28.320,31.738,11.719,57.617
1644362062.555,11.230,29.785,33.691,4.883,42.969
1644362062.559,-7.812,27.832,30.273,9.766,26.367
1644362062.563,20.996,25.879,25.391,17.578,39.551
1644362062.524,41.016,24.414,28.809,21.973,23.926
1644362062.528,24.414,25.391,29.785,19.043,47.363
1644362062.532,1.953,24.414,28.320,18.555,38.086
1644362062.536,14.160,26.367,28.809,20.508,-22.949
1644362062.540,45.898,28.809,28.809,25.879,-22.949
1644362062.544,41.992,28.320,28.320,28.320,18.066
1644362062.547,2.441,28.809,26.855,30.273,-48.340
1644362062.551,-6.348,26.855,24.414,26.855,-16.113
1644362062.555,22.461,26.855,21.484,22.949,77.148
1644362062.559,39.551,27.344,21.973,28.809,34.180
1644362062.563,13.184,25.391,24.414,23.926,4.395
1644362062.567,-2.930,25.391,26.855,20.020,19.043
1644362062.529,26.855,27.832,22.949,21.973,51.270
1644362062.533,41.016,15.137,20.508,20.996,26.855
1644362062.537,14.160,3.906,20.996,16.602,0.488
1644362062.541,-9.277,19.043,19.531,14.160,44.922
1644362062.545,4.395,33.203,16.113,21.484,57.129
1644362062.549,38.574,31.250,20.996,22.949,27.832
1644362062.552,37.109,27.344,24.414,23.926,6.348
1644362062.556,2.441,21.973,20.508,20.996,28.809
1644362062.560,3.418,16.113,20.996,16.602,18.555
1644362062.564,33.203,18.066,18.066,18.066,-8.301
1644362062.568,37.109,21.973,15.625,15.625,-11.719
1644362062.572,10.742,22.949,17.578,10.254,-0.488
1644362062.579,-6.836,23.438,21.484,8.301,29.785
1644362062.583,15.625,20.996,20.996,10.254,49.805
1644362062.587,31.250,5.859,22.949,12.207,22.949
1644362062.591,3.418,4.883,23.438,11.230,39.062
1644362062.595,-14.160,20.996,17.090,1.953,80.078
1644362062.599,14.648,29.297,11.230,4.395,22.949
1644362062.602,42.969,28.809,13.672,11.719,69.824
1644362062.606,26.367,29.785,17.090,11.719,95.703
1644362062.610,0.977,27.832,20.508,10.254,40.039
1644362062.614,11.230,26.367,24.902,6.348,20.020
1644362062.618,36.133,20.020,26.367,8.301,24.414
1644362062.622,24.902,9.766,17.578,6.836,80.078
1644362062.593,-11.230,14.648,14.648,1.953,36.621
1644362062.597,-9.766,25.391,16.602,4.883,4.395
1644362062.601,20.020,20.020,21.484,10.254,31.250
1644362062.605,30.273,13.672,25.391,12.695,26.367
1644362062.609,5.859,18.555,21.973,8.789,83.984
1644362062.613,-5.859,22.461,21.973,6.348,55.176
1644362062.616,21.484,27.832,24.414,11.230,-28.320
1644362062.620,36.621,30.762,24.414,14.648,6.836
1644362062.624,8.301,27.832,23.438,18.066,40.527
1644362062.628,-14.648,25.391,21.484,18.066,-3.906
1644362062.632,10.254,24.902,22.949,12.207,0.000
1644362062.636,31.738,27.344,33.203,18.066,30.273
1644362062.598,18.555,31.250,37.598,20.020,15.625
1644362062.602,-6.836,30.273,29.785,14.648,9.766
1644362062.606,7.324,27.344,20.020,13.184,41.016
1644362062.610,43.945,29.297,18.066,14.648,14.160
1644362062.614,38.574,31.250,23.926,15.625,22.461
1644362062.618,7.812,32.227,26.855,12.695,59.082
1644362062.621,5.371,29.785,31.738,23.926,-0.488
1644362062.625,32.227,22.949,35.156,31.250,-17.090
1644362062.629,37.598,23.926,29.785,24.902,28.320
1644362062.633,9.766,24.902,29.297,19.531,20.020
1644362062.637,-1.465,19.043,33.203,20.508,-27.344
1644362062.641,24.414,22.949,29.785,22.949,-11.230
1644362062.638,44.922,33.203,27.344,23.438,21.484
1644362062.642,18.555,34.668,20.996,10.742,14.648
1644362062.646,-5.371,30.762,17.090,4.395,26.855
1644362062.650,14.160,24.414,24.902,12.207,-36.133
1644362062.654,35.645,22.949,25.391,12.695,-48.828
1644362062.658,21.484,25.879,25.391,10.254,29.785
1644362062.661,-2.441,28.320,30.762,10.742,42.480
1644362062.665,6.348,31.738,32.715,16.602,58.594
1644362062.669,35.156,30.273,30.762,24.414,59.570
1644362062.673,40.527,20.508,25.391,17.578,55.176
1644362062.677,7.812,20.508,21.973,3.418,44.434
1644362062.681,-4.883,26.855,20.020,4.395,30.273
1644362062.698,24.414,28.320,25.391,11.230,17.090
1644362062.702,34.180,31.738,34.180,14.648,2.441
1644362062.706,10.742,24.902,32.715,12.207,31.738
1644362062.710,0.488,25.879,27.344,10.742,81.543
1644362062.714,21.484,37.109,24.414,9.277,41.504
1644362062.718,32.715,36.133,21.973,6.836,38.086
1644362062.721,18.066,32.227,26.367,3.418,41.992
1644362062.725,-3.906,30.273,29.297,5.371,-28.320
1644362062.729,1.465,33.691,27.344,4.395,-12.695
1644362062.733,23.438,33.691,26.367,7.324,39.551
1644362062.737,23.926,27.832,28.320,17.578,91.797
1644362062.741,-3.906,26.367,29.297,14.648,19.531
1644362062.833,-3.418,22.949,26.367,17.090,33.203
1644362062.837,40.039,20.508,28.809,22.461,86.426
1644362062.841,44.922,24.414,34.180,24.414,14.160
1644362062.845,-0.488,24.902,34.668,18.555,58.105
1644362062.849,-12.695,23.438,32.715,13.672,69.824
1644362062.853,21.973,24.902,30.273,14.648,4.883
1644362062.856,25.391,27.832,29.297,12.207,42.969
1644362062.860,-6.348,23.926,29.297,8.789,21.484
1644362062.864,-14.648,23.926,26.855,8.301,-3.906
1644362062.868,13.184,19.531,24.902,18.066,26.367
1644362062.872,40.527,15.137,26.367,21.973,27.344
1644362062.876,18.555,28.809,27.832,11.230,10.254
1644362062.922,-10.742,35.645,28.809,6.836,18.555
1644362062.926,-0.977,36.133,34.668,12.695,50.293
1644362062.930,21.973,34.180,37.109,16.113,6.836
1644362062.934,28.320,23.926,35.156,22.461,-6.348
1644362062.938,3.418,23.926,35.156,17.090,58.105
1644362062.942,0.000,32.227,34.180,14.648,53.711
1644362062.945,31.738,34.668,34.180,19.043,41.016
1644362062.949,33.691,35.645,33.691,10.742,62.012
1644362062.953,-0.977,35.156,30.762,5.371,41.504
1644362062.957,-10.742,35.156,28.809,6.836,15.625
1644362062.961,22.461,38.086,21.973,14.648,12.695
1644362062.965,41.504,36.133,16.602,16.113,42.969
1644362062.940,20.020,28.809,24.902,10.254,82.520
1644362062.944,0.488,29.785,26.855,13.184,16.602
1644362062.948,14.160,28.320,21.973,17.578,37.598
1644362062.952,33.691,12.207,25.879,16.113,78.613
1644362062.956,31.738,19.531,30.762,16.602,42.969
1644362062.960,16.113,36.621,36.621,13.672,11.230
1644362062.963,11.230,31.250,39.062,11.230,24.414
1644362062.967,35.645,26.367,34.180,16.602,-0.977
1644362062.971,41.992,30.273,27.832,19.043,-25.879
1644362062.975,13.184,34.180,24.902,18.066,-2.441
1644362062.979,11.719,34.180,26.367,22.949,-3.418
1644362062.983,38.086,33.203,26.855,31.738,61.035
1644362062.955,46.875,29.785,28.320,30.273,41.992
1644362062.959,20.996,29.785,29.297,28.809,-2.930
1644362062.963,1.953,27.344,24.414,34.668,-27.344
1644362062.967,23.438,23.438,28.809,30.762,-9.766
1644362062.971,41.016,25.879,38.574,21.973,69.336
1644362062.975,20.508,26.367,36.133,27.344,59.570
1644362062.978,-9.277,30.762,31.738,22.949,35.156
1644362062.982,4.395,38.086,25.879,22.461,63.477
1644362062.986,42.480,41.992,29.297,34.180,72.266
1644362062.990,32.715,34.180,38.086,29.297,89.355
1644362062.994,0.488,16.602,35.645,19.043,86.914
1644362062.998,6.836,19.043,32.227,18.066,1.465
1644362062.960,30.762,33.203,29.297,18.555,22.949
1644362062.964,34.180,33.691,27.344,18.066,40.039
1644362062.968,9.766,30.273,30.762,15.625,13.672
1644362062.972,-4.395,34.668,32.227,11.230,38.574
1644362062.976,25.391,34.668,22.949,13.672,41.504
1644362062.980,38.574,24.414,21.484,15.625,51.270
1644362062.983,15.137,21.973,25.879,9.766,48.828
1644362062.987,1.465,28.809,26.855,4.883,52.734
1644362062.991,15.625,32.227,30.762,9.766,49.316
1644362062.995,36.621,30.273,25.391,11.719,38.086
1644362062.999,19.043,31.250,23.438,9.766,53.223
1644362063.003,-3.418,34.668,21.484,8.789,41.016
1644362062.998,17.578,32.715,20.020,7.812,50.293
1644362063.002,40.527,29.297,24.414,11.230,3.906
1644362063.006,34.180,27.344,24.902,10.742,18.555
1644362063.010,10.742,27.832,25.879,11.230,71.777
1644362063.014,10.254,29.297,27.832,11.719,35.156
1644362063.018,33.203,34.180,21.973,9.277,33.203
1644362063.021,34.668,28.320,20.020,9.277,67.383
1644362063.025,13.672,19.531,29.785,9.277,68.359
1644362063.029,-0.977,12.695,34.668,10.742,37.598
1644362063.033,22.461,11.230,34.180,13.184,35.156
1644362063.037,42.969,28.320,37.109,14.160,42.969
1644362063.041,17.578,39.062,34.180,8.789,17.090
1644362063.012,-4.395,38.086,27.832,7.812,9.277
1644362063.016,12.207,33.691,27.344,5.859,13.672
1644362063.020,28.809,29.785,30.273,6.348,-10.254
1644362063.024,8.789,29.297,27.344,14.648,-7.324
1644362063.028,-14.160,27.832,26.855,10.254,57.617
1644362063.032,-1.953,24.414,24.902,3.906,70.801
1644362063.035,32.227,28.320,18.555,4.883,68.359
1644362063.039,34.180,24.414,22.461,7.324,6.836
1644362063.043,2.441,18.066,29.297,7.324,33.691
1644362063.047,1.465,30.762,26.367,8.789,75.195
1644362063.051,30.762,37.109,26.855,15.137,7.812
1644362063.055,37.598,34.668,31.250,18.555,51.270
1644362063.058,11.230,33.691,33.691,19.043,29.785
1644362063.062,-4.395,31.250,34.180,16.602,0.488
1644362063.066,20.996,26.855,32.715,18.555,12.207
1644362063.070,44.434,24.414,29.297,24.902,5.859
1644362063.074,14.648,18.555,27.832,15.137,12.695
1644362063.078,-9.766,16.113,28.809,1.465,13.672
1644362063.081,15.137,26.855,20.020,8.301,-26.367
1644362063.085,33.203,31.250,11.719,10.742,-19.531
1644362063.089,17.578,29.785,20.508,4.883,68.359
1644362063.093,-5.859,27.344,24.414,4.395,48.828
1644362063.097,1.953,22.949,24.414,7.324,-16.602
1644362063.101,29.297,17.090,28.320,14.648,28.809
1644362063.148,32.715,22.461,23.926,20.020,47.852
1644362063.152,1.953,32.227,25.391,12.695,11.719
1644362063.156,-2.930,31.738,28.809,8.789,15.137
1644362063.160,25.879,23.926,25.879,13.672,35.156
1644362063.164,29.785,22.461,24.902,16.113,17.578
1644362063.168,2.930,28.809,25.879,15.137,-7.812
1644362063.171,-13.672,25.879,31.250,10.254,-6.348
1644362063.175,10.254,22.949,30.762,11.719,20.020
1644362063.179,30.762,30.273,23.438,10.254,62.988
1644362063.183,9.766,31.250,19.043,6.348,56.641
1644362063.187,-18.066,22.461,23.438,8.301,21.484
1644362063.191,-4.395,14.648,24.414,8.789,15.137
1644362063.167,25.879,11.719,22.949,9.766,-1.953
1644362063.171,21.973,23.926,31.250,9.766,-3.906
1644362063.175,-10.254,33.203,32.227,10.254,-0.488
1644362063.179,-9.766,30.273,27.344,15.625,13.184
1644362063.183,19.531,32.227,26.855,22.949,43.945
1644362063.187,20.996,36.133,29.785,24.414,46.387
1644362063.190,-3.906,31.250,35.156,21.484,50.293
1644362063.194,-10.254,28.320,34.180,20.508,84.961
1644362063.198,19.043,27.832,22.949,21.973,41.016
1644362063.202,31.738,24.902,20.508,21.484,6.836
1644362063.206,6.348,25.879,26.855,19.531,4.883
1644362063.210,-8.789,27.832,26.855,17.578,8.301
1644362063.207,15.137,29.297,25.391,25.391,24.414
1644362063.211,41.016,20.020,26.855,32.715,8.789
1644362063.215,22.949,17.578,22.461,30.273,33.691
1644362063.219,-8.789,28.809,17.578,22.949,19.043
1644362063.223,0.488,29.297,22.949,24.902,12.207
1644362063.227,32.227,30.273,27.344,24.414,50.781
1644362063.230,31.250,33.203,35.156,16.602,10.742
1644362063.234,2.930,32.715,42.480,18.066,-7.812
1644362063.238,2.930,26.855,41.504,20.508,-7.812
1644362063.242,27.344,22.949,33.691,18.555,28.809
1644362063.246,32.227,22.949,30.762,12.695,46.387
1644362063.250,4.883,18.555,28.809,10.742,29.785
1644362063.313,-9.277,24.414,26.367,4.883,21.973
1644362063.317,22.461,32.715,29.297,10.254,14.648
1644362063.321,37.109,33.203,30.762,23.438,28.320
1644362063.325,12.695,25.879,25.879,11.719,57.129
1644362063.329,-2.441,29.785,26.855,3.906,77.637
1644362063.333,14.648,37.109,34.180,8.301,63.477
1644362063.336,29.297,34.668,27.344,6.836,24.414
1644362063.340,16.113,37.109,22.461,9.766,13.184
1644362063.344,0.488,34.180,29.297,9.277,23.438
1644362063.348,10.254,23.438,30.762,11.230,72.754
1644362063.352,29.297,22.949,29.297,14.160,70.801
1644362063.356,30.762,26.855,30.762,12.207,19.531
1644362063.316,4.395,30.762,31.250,14.160,-10.254
1644362063.320,-1.465,33.691,26.855,15.137,24.902
1644362063.324,25.879,36.621,25.879,20.508,85.449
1644362063.328,34.668,37.109,25.391,21.484,58.594
1644362063.332,11.230,31.250,26.855,12.695,83.008
1644362063.336,-7.812,29.785,33.203,14.648,58.594
1644362063.339,9.277,19.531,30.762,19.531,40.039
1644362063.343,36.133,14.648,22.461,21.484,37.109
1644362063.347,22.461,31.738,19.043,13.184,16.113
1644362063.351,-7.812,43.457,25.391,4.883,35.156
1644362063.355,2.930,40.527,27.344,10.254,21.973
1644362063.359,30.762,33.691,13.184,15.625,25.391
1644362063.360,23.438,32.715,16.602,10.742,41.504
1644362063.364,-1.465,29.785,32.227,7.324,28.320
1644362063.368,5.859,25.879,30.762,16.602,-2.441
1644362063.372,31.250,24.902,26.855,22.949,30.273
1644362063.376,30.762,26.855,25.391,16.602,55.176
1644362063.380,2.441,27.344,29.297,10.742,11.719
1644362063.383,-9.766,29.785,32.715,12.695,6.836
1644362063.387,24.902,32.227,31.250,17.090,73.242
1644362063.391,45.898,28.809,34.180,25.391,41.992
1644362063.395,19.531,27.344,35.156,18.066,-3.418
1644362063.399,-3.418,34.180,32.715,12.695,45.410
1644362063.403,13.184,39.551,26.855,20.508,81.543
1644362063.387,36.621,41.016,20.508,18.066,63.965
1644362063.391,22.949,33.691,24.414,15.625,55.664
1644362063.395,-0.488,33.691,30.762,9.766,46.875
1644362063.399,8.789,39.551,30.273,14.648,28.809
1644362063.403,34.668,32.227,31.738,20.020,35.645
1644362063.407,32.227,30.273,33.203,9.766,24.902
1644362063.410,0.977,32.227,29.297,6.348,12.207
1644362063.414,6.348,32.227,29.297,12.207,43.457
1644362063.418,48.828,31.250,32.715,22.949,60.547
1644362063.422,57.129,30.762,30.273,20.020,50.781
1644362063.426,13.184,31.738,28.320,9.277,29.785
1644362063.430,-5.859,36.133,25.391,5.859,47.363
1644362063.553,22.461,36.133,28.320,7.812,41.992
1644362063.557,38.574,33.203,32.715,12.207,-7.812
1644362063.561,17.578,31.250,31.250,11.719,7.324
1644362063.565,-4.883,34.668,28.320,10.742,4.395
1644362063.569,14.160,38.574,25.879,16.113,-11.719
1644362063.573,44.922,39.551,23.438,25.879,-9.766
1644362063.576,30.273,38.086,24.902,19.531,-27.344
1644362063.580,-5.371,21.484,27.344,10.742,16.113
1644362063.584,10.254,14.648,31.738,20.996,79.102
1644362063.588,43.945,30.273,35.156,26.367,65.430
1644362063.592,36.621,41.504,37.598,25.391,47.363
1644362063.596,2.930,32.715,39.551,17.090,8.301
1644362063.558,-3.906,25.879,35.156,13.184,-2.441
1644362063.562,21.973,29.297,30.762,15.137,9.766
1644362063.566,27.832,28.320,26.855,13.672,-1.465
1644362063.570,-2.930,30.273,22.461,8.301,36.621
1644362063.574,-11.719,32.715,20.996,8.301,88.867
1644362063.578,24.902,33.203,30.273,17.090,101.074
1644362063.581,46.875,26.855,37.598,24.414,67.871
1644362063.585,18.066,25.879,32.227,26.855,45.410
1644362063.589,-4.395,26.855,24.902,19.043,54.688
1644362063.593,6.348,24.902,27.832,7.324,67.383
1644362063.597,34.668,26.367,24.902,4.395,59.570
1644362063.601,30.273,31.250,21.484,8.789,46.387
1644362063.562,-12.695,29.297,25.391,2.930,-6.348
1644362063.566,-7.324,26.855,28.809,2.441,-22.461
1644362063.570,24.902,24.902,32.227,10.742,4.395
1644362063.574,24.414,24.902,27.832,9.766,39.551
1644362063.578,0.000,35.645,23.438,7.324,41.016
1644362063.582,-2.441,27.832,20.508,7.324,8.301
1644362063.585,24.902,26.367,17.090,7.812,25.879
1644362063.589,38.086,35.645,14.160,9.766,86.914
1644362063.593,12.207,32.715,23.438,1.465,120.605
1644362063.597,0.977,28.809,37.109,-0.977,-2.930
1644362063.601,23.438,31.250,35.645,5.371,-34.668
1644362063.605,44.922,34.180,30.273,8.789,14.160
1644362063.569,27.344,34.180,28.320,12.695,27.832
1644362063.573,-2.441,30.273,26.855,15.137,35.156
1644362063.577,10.254,22.949,25.879,22.461,4.395
1644362063.581,37.598,21.973,27.344,24.902,2.441
1644362063.585,27.344,30.273,28.809,20.508,-0.977
1644362063.589,-1.953,30.273,26.855,18.555,1.953
1644362063.592,1.953,17.578,27.832,22.949,35.156
1644362063.596,30.762,19.531,31.250,22.949,69.336
1644362063.600,33.691,30.273,24.414,18.555,44.922
1644362063.604,6.348,31.250,19.043,17.578,23.438
1644362063.608,2.441,32.227,29.785,20.020,22.949
1644362063.612,29.297,26.855,39.062,22.461,44.434
1644362063.613,40.527,24.414,40.527,21.484,19.043
1644362063.617,13.184,24.414,33.203,11.719,-7.812
1644362063.621,-10.742,20.996,24.902,-2.441,-1.953
1644362063.625,7.812,27.832,27.344,2.930,26.367
1644362063.629,35.156,29.785,29.297,7.812,77.637
1644362063.633,18.555,22.949,30.762,0.488,55.664
1644362063.636,-12.695,34.180,29.297,-1.465,1.953
1644362063.640,0.488,38.086,26.855,-0.977,39.551
1644362063.644,31.738,27.832,27.832,7.324,102.051
1644362063.648,32.227,28.809,25.391,13.184,83.008
1644362063.652,-0.977,36.621,21.973,8.789,39.062
1644362063.656,-8.301,35.645,24.414,7.324,17.578
1644362063.659,24.902,27.344,26.367,13.672,51.758
1644362063.663,34.668,29.297,20.508,15.625,50.781
1644362063.667,9.277,34.668,22.949,13.672,19.531
1644362063.671,-6.836,35.645,31.738,10.254,20.020
1644362063.675,17.578,37.109,28.809,9.277,32.715
1644362063.679,34.180,34.180,20.996,11.719,41.016
1644362063.682,8.789,27.832,22.949,2.441,8.301
1644362063.686,-10.254,25.879,29.297,0.488,-26.367
1644362063.690,10.742,30.273,26.855,13.184,2.930
1644362063.694,43.945,25.391,24.414,20.996,44.922
1644362063.698,37.598,15.137,29.297,22.461,41.016
1644362063.702,4.395,26.855,35.156,17.578,78.613
1644362063.750,13.184,38.086,38.086,20.020,85.938
1644362063.754,42.480,40.527,29.785,23.438,34.180
1644362063.758,38.086,38.574,26.855,22.461,10.742
1644362063.762,2.441,36.621,19.531,17.578,53.223
1644362063.766,-9.277,30.273,14.160,9.277,48.340
1644362063.770,24.414,24.414,30.762,12.695,19.531
1644362063.773,39.551,31.738,41.992,12.207,-20.020
1644362063.777,7.812,33.203,36.133,7.324,-4.883
1644362063.781,-13.184,25.879,25.879,11.719,51.270
1644362063.785,11.230,26.855,21.484,17.578,46.387
1644362063.789,37.598,28.809,16.602,14.160,36.621
1644362063.793,19.531,24.414,16.113,8.789,18.555
1644362063.753,-11.719,27.832,20.020,9.766,21.484
1644362063.757,13.184,23.926,20.508,14.160,5.859
1644362063.761,42.480,18.066,24.414,14.160,28.320
1644362063.765,27.832,26.367,26.367,18.066,32.715
1644362063.769,0.488,26.855,19.531,16.602,4.395
1644362063.773,4.883,18.066,14.648,10.254,19.043
1644362063.776,39.062,21.484,20.020,11.230,47.363
1644362063.780,33.203,28.809,27.832,14.160,61.523
1644362063.784,-7.324,31.250,29.297,11.230,51.270
1644362063.788,-11.719,28.320,30.762,5.371,15.137
1644362063.792,21.484,23.926,26.367,8.301,7.324
1644362063.796,40.039,22.949,17.090,10.254,3.418
1644362063.928,13.184,23.926,20.020,7.812,-37.109
1644362063.932,-10.254,30.273,29.785,13.184,12.207
1644362063.936,15.137,29.785,28.320,16.113,83.008
1644362063.940,41.504,27.832,26.367,15.625,29.785
1644362063.944,21.973,36.133,27.344,14.160,2.441
1644362063.948,-6.836,39.551,18.555,8.789,32.715
1644362063.951,4.395,29.785,17.578,2.930,59.082
1644362063.955,32.715,27.832,23.438,4.395,25.391
1644362063.959,23.926,28.809,32.227,13.672,-26.367
1644362063.963,-3.906,19.531,34.668,13.184,32.715
1644362063.967,4.883,18.066,30.762,11.719,58.594
1644362063.971,36.133,17.090,30.273,22.949,54.199
1644362063.991,40.039,16.602,32.715,23.438,72.754
1644362063.995,14.648,30.273,32.227,15.137,30.273
1644362063.999,6.836,37.598,29.785,15.137,47.363
1644362064.003,30.762,35.645,29.297,18.555,92.773
1644362064.007,43.457,31.250,30.762,18.555,65.918
1644362064.011,22.461,27.832,34.180,19.531,67.871
1644362064.014,0.000,27.344,34.180,18.066,63.965
1644362064.018,19.531,32.227,20.508,10.254,20.996
1644362064.022,43.457,30.762,21.484,15.137,36.133
1644362064.026,26.367,28.320,32.227,23.438,48.340
1644362064.030,-6.836,29.785,31.250,17.578,48.828
1644362064.034,-0.488,30.762,28.320,16.113,19.531
1644362063.996,34.180,21.973,27.344,17.578,16.113
1644362064.000,28.809,20.508,25.391,15.625,62.988
1644362064.004,-10.254,29.297,27.832,14.160,85.449
1644362064.008,-9.766,32.227,29.297,10.254,47.363
1644362064.012,27.832,24.414,24.902,14.648,-32.227
1644362064.016,37.598,17.578,27.344,20.996,-16.602
1644362064.019,11.230,20.020,29.297,16.602,42.969
1644362064.023,-4.883,24.414,26.367,13.184,-14.648
1644362064.027,20.508,31.250,19.043,20.020,-45.898
1644362064.031,36.133,39.062,24.902,13.184,6.836
1644362064.035,4.883,36.621,39.062,4.395,27.832
1644362064.039,-17.578,31.738,41.992,3.906,38.574
1644362064.033,0.000,37.598,37.109,5.859,41.992
1644362064.037,25.391,34.180,32.715,14.160,14.648
1644362064.041,21.973,23.926,32.227,18.066,19.531
1644362064.045,2.441,23.926,32.715,15.137,36.621
1644362064.049,7.324,30.762,32.715,13.672,66.406
1644362064.053,33.203,33.691,28.809,18.066,29.297
1644362064.056,31.738,35.156,22.949,22.949,-30.762
1644362064.060,8.301,35.645,20.508,18.555,-7.324
1644362064.064,4.883,28.320,24.414,12.207,35.645
1644362064.068,28.809,29.785,15.625,13.672,42.480
1644362064.072,40.527,37.109,11.230,15.625,6.348
1644362064.076,12.695,28.809,23.438,4.883,22.461
1644362064.036,-6.836,20.996,32.227,-0.977,51.758
1644362064.040,13.672,32.227,29.785,12.695,37.598
1644362064.044,31.738,30.273,28.320,19.531,33.691
1644362064.048,6.836,24.414,30.762,7.324,0.977
1644362064.052,-17.090,34.668,30.762,6.348,-26.367
1644362064.056,5.859,39.551,23.438,11.230,-21.484
1644362064.059,36.621,39.062,21.973,19.531,-21.973
1644362064.063,34.180,42.480,28.809,22.461,9.277
1644362064.067,4.395,40.039,27.344,10.254,47.852
1644362064.071,-0.488,28.809,25.391,4.883,10.742
1644362064.075,25.879,25.879,20.020,11.719,16.113
1644362064.079,34.180,31.738,15.625,17.090,55.176
1644362064.047,8.301,32.227,22.461,11.719,23.438
1644362064.051,-1.953,26.855,28.320,10.254,31.738
1644362064.055,24.414,20.996,31.250,18.555,45.410
1644362064.059,36.621,20.020,35.156,23.926,27.832
1644362064.063,10.254,29.785,34.668,19.531,40.039
1644362064.067,-7.812,37.109,35.156,15.625,64.453
1644362064.070,11.230,40.039,28.320,7.324,110.352
1644362064.074,33.691,41.016,24.902,7.812,100.098
1644362064.078,24.414,35.156,33.203,14.160,44.434
1644362064.082,2.930,29.785,32.715,17.090,1.953
1644362064.086,12.207,24.414,30.762,24.414,-10.742
1644362064.090,41.016,27.344,33.203,27.832,-7.812
1644362064.092,37.109,33.691,25.879,22.461,41.016
1644362064.096,1.953,32.715,21.973,22.949,79.102
1644362064.100,-2.930,25.391,30.762,23.438,79.590
1644362064.104,23.438,24.902,34.180,19.531,47.852
1644362064.108,32.715,27.832,33.691,21.973,15.137
1644362064.112,5.859,32.227,36.133,21.484,29.297
1644362064.115,-7.324,33.203,34.180,16.113,48.828
1644362064.119,17.578,21.484,32.227,20.020,71.289
1644362064.123,39.551,20.508,27.832,30.762,87.891
1644362064.127,22.461,30.273,23.926,19.531,53.711
1644362064.131,-2.441,31.738,26.367,5.371,31.250
1644362064.135,17.578,28.320,25.879,17.090,79.590
1644362064.137,42.969,30.762,28.320,20.508,63.477
1644362064.141,23.438,37.109,28.809,13.184,53.223
1644362064.145,-9.277,40.039,28.809,14.160,38.086
1644362064.149,-0.488,35.156,22.461,15.625,-40.527
1644362064.153,29.297,30.762,14.648,16.113,-13.184
1644362064.157,29.297,29.785,22.949,15.137,59.082
1644362064.160,0.977,29.297,28.809,8.301,32.715
1644362064.164,-1.465,30.273,26.367,9.766,38.086
1644362064.168,24.414,25.879,20.508,13.672,41.016
1644362064.172,27.832,22.461,21.973,19.043,-2.441
1644362064.176,-0.488,19.043,28.809,16.602,0.977
1644362064.180,-18.555,23.438,34.668,5.859,12.695
1644362064.213,3.906,16.602,34.668,7.812,-3.906
1644362064.217,31.250,7.324,29.785,13.672,-0.488
1644362064.221,17.578,25.879,31.738,9.766,-26.367
1644362064.225,0.000,38.086,31.738,12.207,-12.695
1644362064.229,12.695,27.344,26.855,18.555,8.301
1644362064.233,33.203,23.926,25.391,14.648,5.859
1644362064.236,22.949,28.320,22.949,15.137,14.648
1644362064.240,-6.348,23.926,17.090,17.578,-0.488
1644362064.244,1.465,22.949,22.949,21.973,0.488
1644362064.248,32.227,24.902,25.391,20.020,9.277
1644362064.252,37.598,25.879,29.297,20.996,34.180
1644362064.256,7.812,25.391,34.668,19.531,15.137
1644362064.228,1.465,23.926,29.297,16.113,5.371
1644362064.232,33.691,19.531,21.484,23.438,24.902
1644362064.236,41.992,20.508,16.602,22.461,78.125
1644362064.240,18.066,19.043,24.414,21.973,45.898
1644362064.244,4.395,12.695,32.227,22.949,-9.766
1644362064.248,26.367,23.438,26.855,23.438,31.250
1644362064.251,47.852,31.738,23.438,28.809,24.414
1644362064.255,27.832,32.715,18.066,18.066,1.953
1644362064.259,0.977,27.344,18.066,16.602,10.254
1644362064.263,17.090,22.461,30.762,26.367,-0.977
1644362064.267,48.340,25.391,33.691,27.344,36.621
1644362064.271,43.457,28.809,27.832,22.461,73.730
1644362064.303,6.836,31.738,26.367,13.672,20.020
1644362064.307,7.324,28.320,21.484,13.672,19.531
1644362064.311,45.898,23.926,22.461,15.625,18.066
1644362064.315,42.480,22.461,22.949,13.672,-3.418
1644362064.319,13.672,27.832,13.672,7.324,-0.488
1644362064.323,8.789,31.250,10.742,14.160,-0.488
1644362064.326,36.621,30.273,21.484,34.180,60.059
1644362064.330,52.734,29.297,29.785,30.273,102.539
1644362064.334,26.367,23.926,24.414,14.648,81.055
1644362064.338,-0.488,20.020,20.508,13.672,58.594
1644362064.342,11.719,22.461,24.902,15.625,102.539
1644362064.346,37.598,24.414,29.785,21.484,71.289
1644362064.332,22.949,20.996,31.250,21.484,48.340
1644362064.336,-6.836,17.578,31.738,16.113,108.887
1644362064.340,3.418,25.391,30.762,17.578,63.965
1644362064.344,34.180,26.367,21.973,15.625,48.340
1644362064.348,30.762,17.578,14.648,15.625,42.969
1644362064.352,0.977,20.508,17.578,17.090,7.812
1644362064.355,-0.977,30.273,20.020,16.113,3.906
1644362064.359,26.367,33.203,21.973,13.184,0.000
1644362064.363,33.203,29.297,20.020,12.695,76.172
1644362064.367,8.789,25.391,14.160,14.160,61.523
1644362064.371,-1.953,27.832,9.277,13.184,32.715
1644362064.375,22.949,25.879,20.508,12.207,83.008
1644362064.364,43.457,20.996,36.133,19.043,32.715
1644362064.368,19.043,19.043,33.691,15.137,60.547
1644362064.372,-5.371,20.996,33.203,7.324,56.641
1644362064.376,12.207,28.320,34.180,9.277,36.133
1644362064.380,34.668,29.297,32.227,10.254,57.129
1644362064.384,28.320,23.926,30.762,14.160,18.555
1644362064.387,3.418,22.461,27.832,8.789,66.895
1644362064.391,3.906,23.926,29.785,9.766,110.840
1644362064.395,39.551,30.762,26.855,19.043,56.152
1644362064.399,30.273,27.832,16.602,12.695,48.828
1644362064.403,-5.371,26.855,22.461,9.766,10.254
1644362064.407,-1.953,36.621,20.508,10.742,-26.855
1644362064.497,28.809,34.180,11.230,10.742,22.949
1644362064.501,44.922,28.320,20.996,13.672,22.461
1644362064.505,21.973,30.273,33.691,11.230,14.648
1644362064.509,2.441,34.180,40.039,11.230,49.805
1644362064.513,25.879,33.691,38.086,21.484,23.926
1644362064.517,49.805,32.227,31.250,23.438,17.578
1644362064.520,25.879,28.809,27.832,10.742,27.344
1644362064.524,-7.812,28.809,29.297,3.418,51.270
1644362064.528,7.324,34.668,31.738,15.137,31.250
1644362064.532,38.086,37.109,32.227,15.625,20.996
1644362064.536,30.762,36.133,31.738,5.859,33.691
1644362064.540,0.488,37.598,27.832,6.836,13.672
1644362064.603,2.441,40.527,13.184,17.090,35.156
1644362064.607,41.504,39.062,11.230,18.066,56.641
1644362064.611,48.828,34.668,22.949,14.160,38.086
1644362064.615,17.090,35.156,26.367,16.113,-0.488
1644362064.619,8.301,38.574,32.715,25.879,29.297
1644362064.623,35.645,34.180,31.738,31.738,46.875
1644362064.626,44.434,29.785,24.902,24.902,-25.879
1644362064.630,21.484,32.715,25.391,19.531,3.418
1644362064.634,-1.953,36.133,26.855,19.043,67.871
1644362064.638,14.160,33.691,26.367,22.949,77.637
1644362064.642,40.039,30.762,27.344,27.344,63.965
1644362064.646,24.902,38.574,28.809,23.926,32.715
1644362064.609,-2.930,43.457,33.203,17.090,29.297
1644362064.613,3.418,37.598,25.879,13.184,38.574
1644362064.617,31.738,33.203,16.602,12.207,38.574
1644362064.621,26.367,30.273,21.484,10.742,22.949
1644362064.625,-10.742,34.180,22.949,6.348,55.176
1644362064.629,-9.766,35.645,25.879,9.277,62.012
1644362064.632,21.973,30.762,27.344,17.090,17.090
1644362064.636,23.926,28.809,28.320,17.090,12.207
1644362064.640,-9.277,24.414,25.879,11.719,51.270
1644362064.644,-13.184,25.879,23.926,11.719,68.359
1644362064.648,16.602,29.785,31.738,18.555,44.434
1644362064.652,28.809,32.715,31.250,23.438,18.066
1644362064.617,11.719,30.273,28.809,16.113,-12.695
1644362064.621,-2.930,27.344,28.809,2.930,-32.227
1644362064.625,12.695,31.250,23.438,8.789,-16.602
1644362064.629,34.668,36.621,9.766,21.973,20.996
1644362064.633,24.414,42.969,11.230,19.531,12.207
1644362064.637,1.465,41.504,28.320,16.113,22.949
1644362064.640,13.672,35.156,40.527,20.996,38.574
1644362064.644,37.109,42.969,39.062,20.996,19.531
1644362064.648,39.062,48.828,33.691,18.555,14.160
1644362064.652,6.348,45.898,31.738,23.926,56.641
1644362064.656,-4.883,45.410,34.668,21.973,69.824
1644362064.660,27.832,45.410,38.574,10.254,51.270
1644362064.622,39.062,40.527,37.109,14.648,66.406
1644362064.626,13.672,39.062,32.715,17.090,37.109
1644362064.630,-5.859,41.992,29.785,13.184,21.973
1644362064.634,17.090,41.504,26.855,17.090,52.246
1644362064.638,43.457,41.992,16.602,18.066,42.480
1644362064.642,29.297,41.016,21.484,15.137,14.160
1644362064.645,3.906,34.668,34.180,12.695,-52.246
1644362064.649,11.719,34.180,35.645,13.184,-7.812
1644362064.653,40.039,38.574,32.227,14.648,36.621
1644362064.657,29.785,37.598,31.250,13.672,36.133
1644362064.661,-1.465,32.227,34.180,4.395,26.855
1644362064.665,0.977,27.344,39.551,1.953,-0.488
1644362064.649,31.250,26.367,42.969,8.789,-30.273
1644362064.653,34.668,24.414,43.457,13.184,-32.715
1644362064.657,-3.906,37.109,36.621,9.766,48.828
1644362064.661,-12.207,47.852,32.715,7.812,41.016
1644362064.665,19.531,43.457,35.156,9.277,41.016
1644362064.669,35.645,40.039,39.062,8.301,37.109
1644362064.672,15.625,42.969,41.992,10.254,-2.441
1644362064.676,-3.906,39.551,40.039,6.836,34.180
1644362064.680,13.184,31.738,40.039,3.906,74.219
1644362064.684,35.156,35.156,38.086,5.859,41.016
1644362064.688,15.625,35.645,33.203,4.395,-13.184
1644362064.692,-6.836,36.133,29.785,3.906,24.902
1644362064.708,10.742,44.922,35.156,0.977,55.664
1644362064.712,35.645,47.852,33.691,8.301,44.434
1644362064.716,33.691,41.992,30.762,20.020,3.418
1644362064.720,5.371,38.574,36.133,13.672,-5.859
1644362064.724,-1.465,34.668,41.504,12.695,29.297
1644362064.728,29.785,21.484,41.992,23.438,43.457
1644362064.731,43.457,32.227,36.621,26.367,49.805
1644362064.735,9.277,49.316,37.109,9.766,41.992
1644362064.739,-4.395,48.340,39.062,2.930,24.414
1644362064.743,26.367,45.410,42.969,14.160,54.199
1644362064.747,41.016,43.457,44.434,19.531,50.781
1644362064.751,21.973,40.039,41.992,23.926,-3.906
1644362064.737,-1.465,41.016,41.016,20.996,10.742
1644362064.741,15.625,45.410,33.691,20.996,31.738
1644362064.745,40.527,47.363,35.156,27.344,55.176
1644362064.749,23.926,51.270,34.668,22.949,64.941
1644362064.753,-1.465,49.805,37.598,12.207,3.906
