timestamps,TP9,AF7,AF8,TP10,Right AUX
1644358018.856,33.203,26.367,25.879,38.086,18.066
1644358018.860,22.461,27.344,29.785,35.156,-6.836
1644358018.864,24.414,25.879,30.273,32.227,69.336
1644358018.868,35.156,22.949,28.809,32.715,41.016
1644358018.872,31.250,23.926,28.320,33.691,37.109
1644358018.876,14.648,26.367,29.297,25.391,58.105
1644358018.880,17.090,26.367,28.809,19.531,16.602
1644358018.883,33.691,29.785,27.832,26.855,-7.324
1644358018.887,34.668,27.832,25.879,32.227,51.758
1644358018.891,18.555,27.344,28.320,30.762,56.641
1644358018.895,22.461,30.762,28.320,29.297,26.855
1644358018.899,37.109,28.809,22.949,28.320,39.551
1644358018.901,38.574,31.738,20.020,31.738,11.719
1644358018.905,34.180,31.250,23.438,28.809,28.320
1644358018.909,18.555,29.785,25.879,24.902,36.621
1644358018.913,21.484,31.250,26.855,26.367,47.852
1644358018.934,32.715,32.227,27.832,31.738,-6.836
1644358018.938,27.832,29.297,30.273,32.715,24.902
1644358018.942,13.672,29.297,29.785,20.996,31.738
1644358018.946,7.812,30.273,28.320,18.066,-0.488
1644358018.950,24.902,29.297,27.344,26.855,82.520
1644358018.954,28.809,29.297,26.855,32.227,40.039
1644358018.958,14.160,31.250,27.344,24.902,-9.277
1644358018.961,7.812,29.297,24.414,20.020,55.664
1644358018.965,20.020,27.832,23.438,26.855,44.922
1644358018.969,26.367,28.809,22.949,29.297,1.953
1644358018.973,24.902,30.762,23.926,25.391,53.223
1644358018.977,18.555,30.273,24.414,17.090,58.105
1644358018.976,25.879,31.738,23.438,25.391,-15.625
1644358018.980,43.457,32.715,22.461,38.574,8.301
1644358018.984,39.551,33.203,23.438,33.203,77.637
1644358018.988,24.414,36.133,22.461,23.438,97.168
1644358018.992,30.762,36.621,20.996,20.508,49.316
1644358018.996,45.410,36.621,22.461,24.414,9.766
1644358019.000,35.156,35.645,21.973,29.297,29.785
1644358019.003,18.555,31.738,19.043,26.855,36.621
1644358019.007,18.555,30.273,20.020,26.367,1.953
1644358019.011,22.461,33.203,21.973,26.367,35.156
1644358019.015,27.344,35.156,22.461,24.414,37.109
1644358019.019,17.578,32.227,23.926,19.531,17.578
1644358019.081,4.883,31.738,24.414,17.090,71.289
1644358019.085,13.672,32.715,25.391,23.438,36.621
1644358019.089,25.391,32.715,26.367,32.715,-47.363
1644358019.093,22.949,32.715,26.855,29.785,-29.297
1644358019.097,5.859,33.691,27.832,20.996,-14.648
1644358019.101,6.348,32.715,25.879,16.113,0.000
1644358019.105,20.996,30.273,24.902,21.973,13.184
1644358019.108,20.508,31.738,26.855,20.996,-10.254
1644358019.112,4.883,29.297,29.785,8.789,-14.648
1644358019.116,0.977,26.367,28.809,4.395,-14.648
1644358019.120,18.066,26.367,24.414,13.672,11.230
1644358019.124,25.391,29.785,24.414,20.020,15.625
1644358019.085,18.555,31.738,24.902,13.672,-43.457
1644358019.089,18.066,31.738,25.391,10.742,-34.668
1644358019.093,26.367,32.227,25.391,17.578,14.160
1644358019.097,29.297,34.180,23.438,20.996,0.488
1644358019.101,20.996,35.156,22.461,22.461,25.879
1644358019.105,13.672,33.203,24.902,20.996,42.480
1644358019.109,29.297,33.691,25.879,19.531,62.500
1644358019.112,40.527,32.227,24.414,29.785,43.457
1644358019.116,38.086,29.785,23.926,26.855,35.645
1644358019.120,23.438,28.320,26.367,14.160,75.195
1644358019.124,23.438,28.320,26.367,20.996,26.855
1644358019.128,38.086,28.320,24.902,27.832,-1.953
1644358019.140,36.133,28.809,26.855,31.738,-8.301
1644358019.144,20.508,28.809,26.855,26.855,59.082
1644358019.148,9.766,24.414,24.902,21.973,55.664
1644358019.152,24.902,23.926,25.391,33.691,23.926
1644358019.156,30.762,27.832,22.949,36.621,19.043
1644358019.160,18.066,27.344,21.484,30.273,16.602
1644358019.164,13.672,26.855,20.508,29.297,7.324
1644358019.167,22.949,26.855,21.973,32.715,23.438
1644358019.171,29.785,26.367,23.438,39.551,61.035
1644358019.175,24.414,28.320,25.879,35.156,-0.488
1644358019.179,11.719,28.809,26.855,24.414,18.555
1644358019.183,16.602,26.367,23.438,22.461,27.832
1644358019.170,30.762,26.855,24.902,26.855,16.113
1644358019.174,26.367,28.809,25.391,20.508,43.945
1644358019.178,11.230,30.762,23.438,16.113,27.344
1644358019.182,12.695,31.738,21.973,15.625,20.508
1644358019.186,27.344,28.809,23.438,15.137,62.500
1644358019.190,29.297,30.762,25.391,23.926,48.828
1644358019.194,15.137,34.180,26.855,24.902,61.035
1644358019.197,9.766,34.180,25.391,18.555,44.434
1644358019.201,24.902,32.715,24.902,22.461,61.523
1644358019.205,27.344,33.203,26.367,25.879,79.102
1644358019.209,20.508,34.668,25.391,19.043,42.969
1644358019.213,13.672,32.227,24.902,16.602,21.484
1644358019.201,21.973,30.762,23.926,20.020,-10.742
1644358019.205,34.668,31.250,25.391,22.949,26.367
1644358019.209,25.879,34.668,27.832,22.949,46.875
1644358019.213,12.695,35.156,28.809,16.602,-4.395
1644358019.217,25.391,32.715,24.902,16.602,-16.113
1644358019.221,39.062,35.645,20.508,27.832,1.465
1644358019.225,33.203,33.691,23.926,27.832,-7.324
1644358019.228,24.414,31.250,26.367,23.438,46.875
1644358019.232,18.066,32.227,26.367,28.320,57.129
1644358019.236,23.926,31.250,26.855,34.668,68.848
1644358019.240,32.715,30.273,26.855,36.133,59.082
1644358019.244,23.438,31.738,24.902,27.832,17.090
1644358019.261,7.812,29.785,23.438,25.391,28.809
1644358019.265,15.625,27.344,24.902,32.227,67.871
1644358019.269,36.621,30.762,23.926,35.156,25.879
1644358019.273,29.297,33.203,21.973,31.250,30.273
1644358019.277,8.301,34.180,21.484,22.461,73.730
1644358019.281,17.578,34.180,19.531,19.531,55.176
1644358019.285,34.180,33.203,21.973,29.297,17.090
1644358019.288,32.715,33.203,22.949,29.297,11.230
1644358019.292,22.949,32.227,19.043,22.461,17.578
1644358019.296,28.809,34.180,18.555,20.020,70.801
1644358019.300,42.480,37.109,20.020,26.855,83.008
1644358019.304,40.039,34.668,20.508,31.250,36.621
1644358019.306,27.344,34.668,19.043,19.043,24.902
1644358019.310,21.973,36.133,19.043,12.207,24.902
1644358019.314,35.156,35.645,21.973,19.531,25.391
1644358019.318,34.180,36.621,22.949,23.438,8.789
1644358019.322,18.066,35.156,24.902,18.555,-27.344
1644358019.326,11.230,34.180,24.414,8.301,23.926
1644358019.330,22.461,35.156,20.020,12.695,39.062
1644358019.333,31.738,33.691,21.973,20.020,15.625
1644358019.337,30.273,34.668,22.949,21.484,-11.230
1644358019.341,21.484,35.156,23.926,19.043,-22.461
1644358019.345,21.484,33.203,22.949,17.578,0.000
1644358019.349,33.691,31.250,21.973,27.344,-2.930
1644358019.350,29.297,30.273,23.438,29.297,15.625
1644358019.354,13.672,28.320,25.391,20.020,-13.184
1644358019.358,11.230,28.320,25.879,21.484,-6.836
1644358019.362,26.855,31.250,21.484,25.391,29.785
1644358019.366,29.297,35.645,17.578,21.484,-33.691
1644358019.370,15.137,36.621,20.020,15.625,-26.367
1644358019.374,8.301,33.691,19.043,11.230,-7.324
1644358019.377,23.438,33.691,18.066,16.602,12.207
1644358019.381,38.574,35.156,20.020,24.414,95.703
1644358019.385,31.738,38.574,20.508,19.043,23.926
1644358019.389,12.695,35.156,21.484,16.113,5.859
1644358019.393,24.902,32.715,20.020,23.926,68.359
1644358019.397,48.828,31.250,21.484,33.203,51.270
1644358019.401,35.645,27.832,24.902,34.180,28.809
1644358019.405,16.113,32.227,23.438,24.902,41.992
1644358019.409,24.414,37.109,23.438,21.973,32.715
1644358019.413,38.574,35.156,26.367,27.832,20.996
1644358019.417,28.809,35.645,29.297,29.785,11.230
1644358019.421,8.789,37.109,27.832,25.391,6.836
1644358019.424,14.160,34.668,28.809,25.879,13.672
1644358019.428,29.785,35.645,29.785,30.273,47.852
1644358019.432,34.180,35.645,26.855,29.785,80.078
1644358019.436,26.855,30.762,25.879,23.926,62.500
1644358019.440,17.090,33.691,26.855,22.949,44.434
1644358019.441,23.926,34.180,28.809,31.738,52.246
1644358019.445,35.156,34.668,26.367,36.621,87.891
1644358019.449,21.484,36.621,22.461,33.691,24.902
1644358019.453,11.230,32.227,24.902,32.227,-3.418
1644358019.457,22.949,30.273,25.391,30.273,2.441
1644358019.461,34.180,32.715,22.461,34.668,45.898
1644358019.465,31.738,33.691,22.461,28.320,94.727
1644358019.468,17.578,34.180,24.414,17.578,74.707
1644358019.472,22.949,33.203,23.926,17.578,85.449
1644358019.476,35.645,32.227,21.973,24.902,98.145
1644358019.480,29.785,30.273,22.461,31.250,59.570
1644358019.484,12.695,30.273,26.367,26.367,21.973
1644358019.531,7.812,30.273,29.785,23.438,1.953
1644358019.535,21.484,30.762,27.344,28.320,-33.691
1644358019.539,25.879,33.203,24.902,29.297,-32.715
1644358019.543,15.137,32.715,27.344,28.320,47.363
1644358019.547,11.230,30.762,26.367,25.879,49.805
1644358019.551,23.438,32.715,23.438,28.809,-7.812
1644358019.555,33.203,34.180,24.902,39.551,10.254
1644358019.558,26.855,33.691,25.879,33.691,-4.395
1644358019.562,12.207,31.250,24.414,19.531,23.926
1644358019.566,23.926,30.273,21.973,21.973,76.660
1644358019.570,35.156,32.227,22.461,31.250,68.848
1644358019.574,32.715,32.715,23.438,27.832,71.777
1644358019.561,21.484,30.273,25.391,26.855,41.016
1644358019.565,13.184,31.738,24.414,25.879,30.273
1644358019.569,20.508,30.762,23.438,28.320,110.352
1644358019.573,27.344,29.297,24.414,35.156,106.445
1644358019.577,15.625,32.715,26.855,33.691,23.926
1644358019.581,14.648,32.715,27.832,31.738,26.367
1644358019.585,32.227,32.715,26.367,35.156,33.691
1644358019.588,36.621,35.645,26.855,35.645,12.695
1644358019.592,25.879,32.715,26.367,33.203,20.020
1644358019.596,21.484,31.738,24.902,32.715,45.898
1644358019.600,34.668,32.227,26.855,38.086,77.148
1644358019.604,37.109,31.738,26.367,38.574,22.461
1644358019.590,25.879,31.738,26.367,34.180,-9.766
1644358019.594,21.484,31.738,26.855,30.273,22.461
1644358019.598,31.738,34.180,25.879,32.715,29.297
1644358019.602,44.922,33.691,27.832,41.016,51.270
1644358019.606,40.039,34.668,29.785,37.598,35.156
1644358019.610,13.672,33.691,25.879,23.926,28.809
1644358019.614,8.789,31.250,23.438,14.648,67.871
1644358019.617,28.320,33.203,24.414,18.555,45.410
1644358019.621,34.668,34.668,23.438,27.832,-0.977
1644358019.625,18.555,33.203,23.926,22.949,-33.203
1644358019.629,8.789,31.738,23.438,18.066,0.488
1644358019.633,28.809,30.273,20.508,19.531,20.508
1644358019.622,41.992,29.297,18.555,21.973,64.941
1644358019.626,24.902,29.297,20.020,20.996,50.781
1644358019.630,10.254,30.762,21.484,11.719,12.695
1644358019.634,24.902,32.715,20.508,13.184,72.266
1644358019.638,32.715,33.203,17.090,20.996,85.938
1644358019.642,25.391,34.180,16.602,19.043,66.895
1644358019.646,9.277,34.668,20.508,12.695,45.898
1644358019.649,6.348,31.250,21.484,8.789,58.594
1644358019.653,28.809,31.738,17.090,17.090,83.496
1644358019.657,37.109,36.133,19.531,22.461,63.477
1644358019.661,17.578,35.156,25.879,10.742,17.578
1644358019.665,10.742,31.250,25.391,11.230,-4.395
1644358019.681,23.926,29.785,22.949,17.090,28.320
1644358019.685,29.297,30.762,23.438,17.578,67.383
1644358019.689,19.531,33.203,26.367,27.344,73.730
1644358019.693,8.301,33.691,24.414,20.996,45.898
1644358019.697,22.949,33.203,24.902,19.043,56.152
1644358019.701,34.180,36.133,29.785,24.414,42.969
1644358019.705,22.949,39.062,27.832,19.043,29.297
1644358019.708,18.555,40.527,25.391,18.066,47.852
1644358019.712,28.809,39.062,26.367,20.508,15.137
1644358019.716,37.109,37.109,25.391,30.273,14.648
1644358019.720,31.250,36.621,22.461,27.344,21.973
1644358019.724,17.578,35.645,23.926,14.160,50.293
1644358019.725,20.508,35.156,26.367,17.578,52.734
1644358019.729,34.668,34.668,27.832,25.391,38.086
1644358019.733,34.668,36.133,28.320,27.344,60.059
1644358019.737,22.461,37.598,26.855,19.531,62.500
1644358019.741,28.320,37.598,28.809,17.578,48.828
1644358019.745,39.062,38.574,28.809,29.785,82.031
1644358019.749,36.621,39.062,23.926,29.785,62.500
1644358019.752,24.902,34.668,24.902,24.414,29.297
1644358019.756,17.090,31.250,24.902,22.949,80.078
1644358019.760,28.320,32.715,21.484,23.926,77.637
1644358019.764,40.527,30.273,23.438,34.180,40.527
1644358019.768,39.062,30.762,23.438,36.621,42.969
1644358019.801,22.461,30.273,25.391,25.391,21.484
1644358019.805,22.949,27.344,26.855,22.461,23.438
1644358019.809,34.180,26.367,23.926,27.344,47.852
1644358019.813,33.203,28.809,23.926,26.367,60.547
1644358019.817,17.090,28.809,25.879,20.020,59.082
1644358019.821,14.648,28.320,25.391,18.066,21.484
1644358019.825,37.109,31.738,21.484,24.902,22.949
1644358019.828,37.109,34.180,20.996,22.461,42.480
1644358019.832,21.484,31.738,22.461,16.602,50.781
1644358019.836,18.555,30.762,23.438,18.066,33.203
1644358019.840,27.832,30.762,23.926,22.461,40.527
1644358019.844,34.668,28.809,22.949,22.949,79.102
1644358019.876,26.367,28.320,24.902,14.648,50.781
1644358019.880,14.648,28.320,26.367,13.672,33.203
1644358019.884,19.043,28.320,22.949,18.555,55.664
1644358019.888,26.367,26.855,24.414,25.391,45.410
1644358019.892,17.578,26.855,26.855,28.809,35.645
1644358019.896,1.465,27.832,25.391,20.020,46.875
1644358019.900,8.301,28.320,24.902,19.531,35.645
1644358019.903,25.879,29.785,24.414,24.902,53.223
1644358019.907,25.391,28.809,25.391,26.367,55.176
1644358019.911,13.184,29.297,25.879,26.367,30.273
1644358019.915,13.184,31.250,23.926,20.508,31.738
1644358019.919,29.785,32.715,23.438,22.949,28.320
1644358019.880,32.227,33.691,19.043,24.414,42.480
1644358019.884,17.090,31.738,19.043,19.531,49.805
1644358019.888,14.160,31.738,20.996,19.531,69.336
1644358019.892,26.855,33.203,22.461,25.879,78.613
1644358019.896,36.133,30.273,25.391,34.668,67.871
1644358019.900,27.832,31.738,23.926,34.668,59.570
1644358019.904,3.906,33.203,24.902,28.809,31.250
1644358019.907,21.484,30.273,26.367,35.645,46.875
1644358019.911,42.480,31.738,26.367,39.551,73.730
1644358019.915,25.391,30.762,26.367,35.156,66.406
1644358019.919,12.695,33.691,28.809,32.227,46.387
1644358019.923,23.926,37.109,26.855,32.715,52.246
1644358019.937,37.109,34.668,23.438,38.086,87.402
1644358019.941,41.016,33.691,24.902,41.504,98.633
1644358019.945,22.461,33.691,23.438,33.691,59.570
1644358019.949,20.020,31.738,23.438,28.809,73.242
1644358019.953,33.203,30.273,27.344,30.273,126.465
1644358019.957,32.715,29.297,30.273,32.715,104.004
1644358019.961,31.738,29.785,29.297,32.715,74.707
1644358019.964,20.020,32.227,27.832,24.902,83.984
1644358019.968,35.156,31.250,26.855,29.785,90.820
1644358019.972,51.270,30.273,25.879,40.527,86.914
1644358019.976,43.945,33.203,27.832,37.109,96.680
1644358019.980,32.715,34.668,27.344,26.855,66.406
1644358019.950,35.156,32.227,27.344,24.902,38.574
1644358019.954,44.434,31.250,26.367,35.645,105.469
1644358019.958,35.645,33.691,23.438,35.645,117.676
1644358019.962,23.926,33.203,25.391,28.320,43.457
1644358019.966,30.273,32.715,24.902,29.785,39.062
1644358019.970,41.016,34.180,22.461,33.691,92.773
1644358019.974,35.156,34.180,24.902,31.250,100.098
1644358019.977,21.484,34.180,26.367,26.855,77.637
1644358019.981,21.973,33.203,26.367,26.367,81.543
1644358019.985,38.574,32.227,24.414,32.715,98.145
1644358019.989,43.945,31.738,20.996,39.551,101.074
1644358019.993,31.250,29.297,24.414,34.180,74.707
1644358019.996,20.020,28.320,26.367,26.367,43.457
1644358020.000,30.762,28.809,25.879,27.344,58.105
1644358020.004,34.668,29.297,27.344,28.320,53.711
1644358020.008,27.344,31.738,26.367,27.344,26.855
1644358020.012,17.090,29.785,25.391,23.438,38.574
1644358020.016,20.020,28.809,22.949,22.949,39.551
1644358020.020,37.109,31.250,22.949,22.461,35.645
1644358020.023,32.715,28.809,26.367,15.137,48.340
1644358020.027,13.672,26.855,28.809,12.695,49.316
1644358020.031,12.207,28.320,25.879,14.648,21.973
1644358020.035,24.902,29.297,25.391,17.578,27.344
1644358020.039,33.203,31.250,25.391,19.531,62.988
1644358020.055,24.414,33.691,24.902,15.137,53.711
1644358020.059,16.113,32.227,29.297,13.184,53.711
1644358020.063,27.832,31.738,27.344,23.438,46.875
1644358020.067,34.180,33.691,24.902,23.926,45.410
1644358020.071,21.973,32.227,25.879,15.625,46.387
1644358020.075,13.672,32.227,28.809,16.113,16.113
1644358020.079,19.531,33.203,30.762,22.949,15.625
1644358020.082,24.902,31.738,27.832,21.484,47.363
1644358020.086,17.578,29.785,29.297,14.160,52.734
1644358020.090,-0.488,28.320,32.715,12.695,34.668
1644358020.094,5.371,28.320,31.250,13.184,27.832
1644358020.098,23.438,27.832,28.320,13.672,65.430
1644358020.100,18.555,26.855,27.832,15.137,71.777
1644358020.104,-3.418,24.902,29.297,10.254,20.020
1644358020.108,2.930,24.414,29.297,8.789,34.668
1644358020.112,24.414,27.832,28.320,19.531,70.312
1644358020.116,28.320,31.738,28.809,24.414,68.359
1644358020.120,21.484,32.227,28.809,20.020,77.148
1644358020.124,17.090,31.738,30.273,16.113,64.941
1644358020.127,28.320,30.762,30.273,20.020,70.801
1644358020.131,33.691,30.762,27.832,24.902,98.145
1644358020.135,25.391,32.715,26.367,14.160,76.660
1644358020.139,12.695,30.762,24.414,4.883,46.875
1644358020.143,13.184,31.250,25.391,18.555,61.035
1644358020.147,25.391,32.715,26.855,26.855,133.789
1644358020.151,22.461,34.668,27.344,23.926,119.141
1644358020.155,4.883,35.645,27.344,26.855,77.637
1644358020.159,11.230,33.691,26.855,31.738,99.609
1644358020.163,29.785,33.691,24.414,34.668,131.836
1644358020.167,28.809,33.203,23.438,34.668,143.066
1644358020.171,13.184,31.250,26.367,25.879,109.375
1644358020.174,21.973,32.227,24.414,27.344,91.797
1644358020.178,37.598,33.203,20.996,28.809,115.234
1644358020.182,34.668,32.715,22.949,26.855,109.863
1644358020.186,20.020,35.156,24.414,28.320,117.676
1644358020.190,11.230,33.691,24.902,23.926,112.793
1644358020.267,23.926,32.715,25.879,24.414,81.055
1644358020.271,31.250,31.738,23.438,27.344,109.375
1644358020.275,29.297,34.180,23.438,29.785,148.926
1644358020.279,16.113,34.668,24.414,26.367,127.441
1644358020.283,20.508,33.203,22.461,19.531,123.047
1644358020.287,34.180,33.691,21.484,24.902,155.273
1644358020.291,31.250,33.691,20.508,31.738,158.691
1644358020.294,18.066,33.203,21.973,31.250,115.723
1644358020.298,17.578,31.250,24.902,25.879,83.496
1644358020.302,40.527,31.250,25.879,28.320,144.531
1644358020.306,44.922,32.715,25.391,37.598,201.172
1644358020.310,30.273,32.715,27.344,36.133,139.160
1644358020.271,26.367,32.715,25.879,39.062,106.445
1644358020.275,43.945,32.715,23.926,44.922,161.621
1644358020.279,53.223,34.668,26.855,43.945,175.293
1644358020.283,34.668,36.621,27.832,41.992,120.117
1644358020.287,18.066,34.668,26.367,31.738,113.281
1644358020.291,28.320,33.203,25.879,30.273,140.625
1644358020.295,38.086,31.738,26.855,38.574,168.457
1644358020.298,23.926,31.738,26.855,32.227,182.617
1644358020.302,9.277,33.691,26.855,26.367,148.438
1644358020.306,15.137,33.203,25.879,28.809,135.742
1644358020.310,30.273,32.715,24.902,35.156,157.715
1644358020.314,38.086,32.715,22.949,31.250,172.363
1644358020.281,25.879,33.691,21.973,18.066,150.391
1644358020.285,20.996,36.133,23.438,20.996,132.812
1644358020.289,36.621,33.691,23.438,31.250,161.621
1644358020.293,38.086,32.227,23.926,34.180,199.219
1644358020.297,28.809,33.691,24.414,22.949,171.387
1644358020.301,24.414,34.668,25.391,20.996,106.934
1644358020.305,30.273,33.691,25.879,30.273,112.793
1644358020.308,36.621,32.227,25.391,25.879,144.043
1644358020.312,28.809,33.691,25.879,20.996,147.949
1644358020.316,15.137,36.621,25.391,17.090,134.766
1644358020.320,30.762,37.109,26.367,19.043,133.301
1644358020.324,43.457,34.180,29.297,30.762,132.812
1644358020.344,29.785,33.203,27.832,33.203,123.047
1644358020.348,16.113,33.203,26.855,27.832,96.191
1644358020.352,24.902,32.227,26.367,28.320,84.473
1644358020.356,35.156,35.156,25.391,24.902,113.770
1644358020.360,29.297,33.691,27.832,16.113,113.770
1644358020.364,20.020,31.250,29.785,16.113,109.375
1644358020.368,24.414,32.227,30.273,21.973,113.281
1644358020.371,31.250,31.250,28.320,25.391,139.648
1644358020.375,28.320,28.809,25.879,25.391,145.508
1644358020.379,16.602,31.738,28.809,20.020,107.422
1644358020.383,8.789,32.227,29.297,15.137,70.312
1644358020.387,20.996,27.832,26.855,18.555,86.426
1644358020.372,25.391,29.785,27.344,21.484,128.906
1644358020.376,19.043,32.715,29.297,14.160,103.516
1644358020.380,9.277,33.691,27.832,7.324,62.500
1644358020.384,18.066,35.645,25.391,8.789,63.965
1644358020.388,32.227,37.109,24.902,17.090,72.266
1644358020.392,21.973,36.621,24.902,16.113,79.590
1644358020.396,4.883,35.645,25.391,9.277,64.453
1644358020.399,6.348,37.109,24.902,13.184,64.453
1644358020.403,21.484,35.156,24.414,21.484,82.031
1644358020.407,23.926,34.180,24.902,23.438,68.848
1644358020.411,11.230,34.668,25.391,8.789,12.207
1644358020.415,12.207,30.762,21.973,1.953,-39.551
1644358020.431,29.297,33.203,20.508,13.672,2.441
1644358020.435,32.227,34.180,20.508,17.578,43.945
1644358020.439,14.160,33.203,20.020,8.789,20.020
1644358020.443,6.836,33.691,20.508,0.000,-27.344
1644358020.447,23.926,36.621,22.949,8.789,-10.742
1644358020.451,22.949,43.945,23.926,16.602,20.996
1644358020.455,2.930,41.992,26.367,4.883,-15.137
1644358020.458,-4.395,29.297,24.902,6.836,-20.996
1644358020.462,-1.465,30.273,21.973,10.254,24.902
1644358020.466,9.277,43.457,25.879,10.742,38.574
1644358020.470,6.836,50.781,27.344,14.160,42.969
1644358020.474,-16.602,53.711,26.367,-0.977,35.156
1644358020.475,-18.066,56.152,26.367,-4.395,62.500
1644358020.479,-4.883,59.570,27.344,2.441,96.680
1644358020.483,-21.973,69.336,31.250,-19.531,84.473
1644358020.487,-45.410,80.566,33.691,-41.016,40.039
1644358020.491,-58.105,75.684,32.715,-44.434,36.621
1644358020.495,-69.336,73.242,31.250,-58.594,41.016
1644358020.499,-71.777,80.078,31.250,-63.965,15.137
1644358020.502,-90.820,86.426,30.762,-78.613,36.621
1644358020.506,-117.188,92.285,27.344,-105.469,18.066
1644358020.510,-117.676,96.191,27.344,-116.211,-22.949
1644358020.514,-106.934,98.633,24.902,-108.887,-21.484
1644358020.518,-111.816,99.121,23.438,-107.910,-29.785
1644358020.524,-121.094,95.215,26.367,-121.094,-87.402
1644358020.528,-114.258,87.402,24.902,-118.164,-127.441
1644358020.532,-95.215,77.637,23.926,-107.422,-109.863
1644358020.536,-85.449,68.359,25.879,-101.562,-147.461
1644358020.540,-91.309,63.477,24.902,-99.121,-233.887
1644358020.544,-77.637,56.641,23.926,-86.914,-300.781
1644358020.548,-56.152,50.293,24.414,-69.824,-382.324
1644358020.551,-56.641,44.922,23.926,-65.430,-431.152
1644358020.555,-60.059,38.574,23.926,-70.312,-467.285
1644358020.559,-58.594,34.668,24.902,-68.848,-492.676
1644358020.563,-43.945,25.879,25.391,-58.594,-510.742
1644358020.567,-23.438,21.484,24.902,-36.133,-434.082
1644358020.582,-26.367,22.461,24.414,-27.344,-371.094
1644358020.586,-34.668,16.602,22.949,-34.668,-412.598
1644358020.590,-20.996,11.230,19.043,-29.785,-417.480
1644358020.594,-9.277,10.254,17.090,-20.996,-374.023
1644358020.598,1.953,11.230,19.531,-12.695,-316.895
1644358020.602,-7.324,9.766,21.973,-10.254,-290.039
1644358020.606,-3.418,7.324,21.484,-6.348,-299.316
1644358020.609,23.926,8.789,22.461,8.789,-291.016
1644358020.613,21.973,10.254,25.391,12.207,-278.809
1644358020.617,10.742,8.789,26.367,8.301,-232.910
1644358020.621,19.043,7.812,26.367,17.578,-186.523
1644358020.625,33.691,9.277,22.949,29.785,-201.660
1644358020.628,39.551,8.301,20.996,39.062,-176.270
1644358020.632,35.156,6.348,22.461,41.504,-184.082
1644358020.636,37.109,7.812,20.508,41.992,-133.301
1644358020.640,55.176,8.301,19.043,50.781,-97.656
1644358020.644,65.918,10.254,19.531,62.988,-131.348
1644358020.648,52.734,10.742,23.926,66.895,-138.672
1644358020.652,42.480,9.766,25.391,59.082,-157.227
1644358020.655,57.617,10.254,26.367,70.312,-104.492
1644358020.659,78.125,10.742,27.832,88.379,-97.168
1644358020.663,86.914,10.742,24.902,87.402,-109.863
1644358020.667,77.148,10.254,25.879,85.449,-96.191
1644358020.671,89.844,10.254,28.809,89.355,-52.734
1644358020.655,112.305,14.160,28.809,96.680,-7.812
1644358020.659,108.887,14.160,25.879,109.375,-51.758
1644358020.663,95.215,15.137,25.391,104.980,0.488
1644358020.667,95.215,18.066,25.391,98.145,65.430
1644358020.671,110.352,17.578,23.926,110.840,-18.555
1644358020.675,112.305,15.625,23.926,117.676,-56.641
1644358020.679,92.285,15.625,26.367,110.840,22.461
1644358020.682,81.543,18.066,25.879,108.887,34.668
1644358020.686,98.633,18.066,25.391,114.746,-15.625
1644358020.690,106.445,20.020,27.344,118.652,-6.348
1644358020.694,95.703,21.484,24.902,110.352,-24.902
1644358020.698,88.379,21.484,24.902,99.121,-53.711
1644358020.716,91.797,21.973,23.926,101.074,55.664
1644358020.720,99.121,24.414,21.973,108.398,87.402
1644358020.724,98.633,25.879,25.391,100.098,41.016
1644358020.728,83.496,28.809,25.879,85.449,36.133
1644358020.732,79.102,28.320,24.414,81.055,-2.441
1644358020.736,90.332,24.902,25.391,84.473,2.930
1644358020.740,85.449,24.902,27.344,81.055,33.203
1644358020.743,64.453,24.902,29.297,64.453,22.461
1644358020.747,56.152,25.391,28.320,63.965,38.574
1644358020.751,67.383,25.879,25.391,73.730,2.930
1644358020.755,76.172,27.344,26.367,69.824,-20.508
1644358020.759,61.035,28.809,27.832,61.523,21.973
1644358020.745,42.480,27.344,26.855,55.176,-12.207
1644358020.749,48.828,25.391,25.879,50.293,-10.254
1644358020.753,53.711,28.320,22.461,46.875,39.062
1644358020.757,44.922,26.855,20.996,35.156,26.367
1644358020.761,30.762,26.855,23.926,27.832,-33.203
1644358020.765,36.133,27.832,30.273,28.809,-12.695
1644358020.769,45.410,26.855,32.227,31.738,59.082
1644358020.772,37.598,25.879,29.785,31.738,66.406
1644358020.776,25.879,26.367,28.809,22.949,62.500
1644358020.780,20.996,26.855,29.297,18.555,55.176
1644358020.784,27.344,27.832,28.320,20.508,20.020
1644358020.788,27.832,29.297,26.855,20.020,0.977
1644358020.805,18.066,30.273,27.832,16.113,-5.859
1644358020.809,9.766,33.203,27.344,14.648,-24.902
1644358020.813,17.578,31.250,23.438,16.602,14.160
1644358020.817,26.367,27.832,24.414,20.996,9.277
1644358020.821,16.113,29.785,24.902,15.625,23.438
1644358020.825,4.883,32.227,23.438,7.812,27.832
1644358020.829,15.625,32.715,21.973,12.207,20.996
1644358020.832,34.668,30.762,20.996,19.531,34.668
1644358020.836,25.879,32.227,22.949,17.578,-2.930
1644358020.840,2.930,32.227,24.902,9.277,-43.457
1644358020.844,8.301,28.320,24.902,14.160,-10.742
1644358020.848,28.809,25.879,23.438,32.715,94.238
1644358020.926,31.250,29.297,23.438,32.715,56.641
1644358020.930,13.672,30.762,25.391,16.113,14.648
1644358020.934,10.742,29.785,23.438,16.113,79.102
1644358020.938,30.762,30.762,20.996,25.879,36.621
1644358020.942,35.645,32.227,24.902,32.715,32.715
1644358020.946,21.484,32.715,27.344,28.320,42.969
1644358020.950,20.020,33.691,26.855,27.832,-19.043
1644358020.953,41.992,32.227,27.344,39.062,15.137
1644358020.957,61.035,30.762,26.855,43.457,42.969
1644358020.961,47.852,30.762,25.879,36.133,11.230
1644358020.965,24.414,30.273,23.438,34.180,11.230
1644358020.969,28.320,31.250,24.902,38.574,1.953
1644358020.929,37.598,33.691,26.855,43.457,26.367
1644358020.933,32.715,33.691,28.809,45.410,14.648
1644358020.937,22.949,33.203,32.715,38.086,-7.324
1644358020.941,18.555,32.715,30.273,33.203,-7.812
1644358020.945,32.715,32.715,28.320,40.039,13.184
1644358020.949,37.109,32.715,28.809,44.434,40.039
1644358020.953,25.879,32.227,28.809,35.156,39.551
1644358020.956,19.531,32.227,29.785,29.297,33.203
1644358020.960,31.738,30.762,30.762,38.086,-9.277
1644358020.964,40.039,28.809,30.762,45.410,-17.090
1644358020.968,29.297,32.715,30.273,38.086,9.277
1644358020.972,23.438,32.715,28.809,32.227,5.371
1644358020.934,34.180,29.785,26.855,37.598,61.523
1644358020.938,41.504,31.250,26.855,44.922,95.215
1644358020.942,34.180,30.762,29.785,43.945,28.320
1644358020.946,27.832,32.227,26.855,32.715,66.406
1644358020.950,35.156,32.715,25.391,26.367,57.617
1644358020.954,44.922,32.715,26.855,35.156,55.664
1644358020.958,39.062,33.691,25.879,35.156,29.297
1644358020.961,22.461,31.250,24.414,27.344,-19.531
1644358020.965,25.391,31.738,24.902,25.879,52.246
1644358020.969,33.691,33.203,22.461,27.832,38.574
1644358020.973,23.926,31.738,21.973,26.367,37.109
1644358020.977,14.648,33.203,23.926,15.137,1.953
1644358021.017,17.090,34.668,23.926,9.766,14.648
1644358021.021,35.156,33.203,24.414,19.531,65.918
1644358021.025,44.434,32.715,24.414,26.855,8.301
1644358021.029,32.227,31.250,22.949,9.766,0.000
1644358021.033,18.555,32.715,25.391,-2.930,-4.883
1644358021.037,26.855,35.645,25.391,4.883,22.949
1644358021.041,34.668,36.133,19.043,15.625,41.504
1644358021.044,22.949,35.156,19.531,18.555,-3.906
1644358021.048,7.324,36.133,26.367,7.324,12.207
1644358021.052,14.160,36.133,27.832,11.719,53.711
1644358021.056,35.156,33.691,26.367,26.367,69.336
1644358021.060,31.250,32.715,28.320,28.320,89.355
1644358021.046,18.066,32.715,30.273,18.555,52.734
1644358021.050,13.672,32.715,28.809,17.090,-41.992
1644358021.054,24.414,33.691,26.367,20.996,-43.457
1644358021.058,30.273,33.203,28.320,23.926,43.945
1644358021.062,19.531,31.738,30.273,19.043,91.309
1644358021.066,13.672,30.273,26.855,10.254,-0.977
1644358021.070,28.320,30.762,24.902,15.625,-10.742
1644358021.073,37.598,32.227,27.344,21.973,30.273
1644358021.077,29.785,33.203,29.297,24.414,37.598
1644358021.081,20.996,32.227,27.344,20.508,80.078
1644358021.085,30.273,29.785,27.344,25.391,75.195
1644358021.089,41.992,29.297,27.344,34.668,11.230
1644358021.077,33.691,30.762,27.832,32.227,-15.625
1644358021.081,15.625,29.297,28.320,28.320,3.906
1644358021.085,19.043,28.320,27.344,21.973,67.871
1644358021.089,33.691,29.297,29.297,19.043,62.012
1644358021.093,35.645,28.320,32.715,26.367,21.973
1644358021.097,25.879,28.809,32.715,25.391,16.113
1644358021.101,23.438,30.762,28.320,24.902,7.812
1644358021.104,41.016,30.273,26.855,34.668,23.438
1644358021.108,47.363,33.203,31.250,43.457,52.734
1644358021.112,25.879,32.227,29.297,35.156,102.051
1644358021.116,17.090,31.738,26.367,25.879,83.984
1644358021.120,31.250,30.762,26.367,28.320,43.457
1644358021.136,39.062,29.297,24.902,31.250,32.227
1644358021.140,34.180,33.203,27.832,32.227,46.875
1644358021.144,20.996,35.156,27.344,22.461,53.711
1644358021.148,24.902,33.691,25.879,22.461,54.199
1644358021.152,40.527,34.180,26.855,33.691,51.270
1644358021.156,37.598,38.086,26.367,31.738,14.160
1644358021.160,16.602,36.621,27.344,20.020,15.625
1644358021.163,8.301,32.715,26.855,16.602,30.762
1644358021.167,21.973,31.250,25.391,21.484,14.648
1644358021.171,26.855,30.762,27.344,23.926,-16.602
1644358021.175,13.672,32.715,28.809,18.555,-0.488
1644358021.179,7.812,32.227,28.320,17.090,24.902
1644358021.181,18.555,30.273,29.297,21.484,71.289
1644358021.185,28.320,33.691,29.297,22.949,26.855
1644358021.189,17.090,32.227,32.227,20.996,-11.230
1644358021.193,1.465,29.785,28.809,20.020,38.086
1644358021.197,10.254,29.297,22.949,25.391,-9.277
1644358021.201,24.414,27.344,26.367,29.297,-17.090
1644358021.205,19.043,30.273,27.832,27.344,60.059
1644358021.208,0.000,28.809,27.344,20.508,53.223
1644358021.212,6.348,26.367,30.273,23.438,40.527
1644358021.216,24.414,29.785,28.809,29.297,32.715
1644358021.220,24.414,32.715,28.320,20.020,-9.766
1644358021.224,15.625,31.738,27.832,18.555,-24.902
1644358021.270,19.531,31.738,26.367,23.438,-4.395
1644358021.274,30.273,32.715,28.320,29.785,16.602
1644358021.278,30.762,35.156,27.344,34.668,27.344
1644358021.282,26.367,34.668,27.344,28.320,33.691
1644358021.286,13.184,31.738,28.809,23.926,18.555
1644358021.290,19.531,29.785,27.832,28.320,19.531
1644358021.294,34.668,27.832,25.879,35.156,47.852
1644358021.297,23.438,31.738,24.902,31.250,35.156
1644358021.301,13.184,35.645,24.902,26.855,0.977
1644358021.305,25.879,36.621,27.344,29.297,-0.977
1644358021.309,37.598,35.645,26.855,32.227,27.344
1644358021.313,31.738,32.227,26.367,28.809,33.203
1644358021.275,18.555,33.203,28.320,19.531,11.230
1644358021.279,16.113,35.156,28.320,23.438,71.777
1644358021.283,24.902,34.180,24.902,31.738,63.965
1644358021.287,24.414,33.691,22.949,30.273,36.621
1644358021.291,15.137,31.738,24.414,22.461,12.695
1644358021.295,19.531,32.715,25.391,27.344,-14.160
1644358021.299,36.133,34.180,24.902,32.715,7.324
1644358021.302,38.574,31.738,26.367,27.344,33.203
1644358021.306,21.484,32.715,29.297,24.414,57.129
1644358021.310,16.602,32.227,30.762,28.809,12.695
1644358021.314,30.762,27.832,29.785,38.086,4.395
1644358021.318,38.086,29.785,26.367,41.992,5.371
1644358021.316,20.996,31.250,25.391,35.156,25.879
1644358021.320,7.324,28.320,24.414,24.414,20.508
1644358021.324,26.855,29.785,22.461,28.320,0.000
1644358021.328,39.551,28.809,23.926,34.668,53.711
1644358021.332,31.738,26.367,27.344,28.809,54.688
1644358021.336,20.996,27.344,27.344,21.484,-7.324
1644358021.340,22.949,27.344,26.367,24.414,-6.348
1644358021.343,33.203,29.785,24.902,29.785,44.922
1644358021.347,36.621,31.250,24.902,25.391,79.590
1644358021.351,20.996,31.250,26.367,13.184,93.750
1644358021.355,14.648,30.762,28.320,8.789,7.324
1644358021.359,35.156,29.785,29.297,23.438,-24.414
1644358021.391,44.922,32.715,27.832,32.715,43.457
1644358021.395,29.785,32.227,26.367,29.785,57.617
1644358021.399,20.020,29.297,27.344,27.832,33.203
1644358021.403,31.738,29.297,29.297,29.297,11.719
1644358021.407,36.133,29.785,26.855,37.109,49.316
1644358021.411,30.762,30.762,27.832,39.062,62.988
1644358021.415,21.484,31.250,29.297,34.180,12.695
1644358021.418,30.762,33.203,27.832,32.715,-6.836
1644358021.422,51.758,32.227,27.344,39.551,29.297
1644358021.426,48.340,31.250,27.832,43.945,58.105
1644358021.430,21.973,32.227,26.855,30.762,40.039
1644358021.434,19.043,31.250,25.391,30.762,62.988
1644358021.406,31.738,30.762,24.414,35.645,67.383
1644358021.410,35.645,33.203,24.414,33.203,59.570
1644358021.414,26.367,35.156,27.832,27.832,39.551
1644358021.418,17.090,33.203,28.320,17.090,45.410
1644358021.422,35.156,32.715,25.391,23.438,78.613
1644358021.426,45.898,31.738,24.902,36.621,76.660
1644358021.430,34.180,32.227,27.832,28.320,35.156
1644358021.433,23.438,36.133,28.320,24.902,28.809
1644358021.437,29.785,37.109,25.391,36.621,17.578
1644358021.441,29.785,36.133,23.438,37.109,66.406
1644358021.445,21.484,35.156,24.414,26.367,73.730
1644358021.449,12.207,34.180,24.902,20.508,18.555
1644358021.483,11.719,34.668,21.484,18.555,31.738
1644358021.487,27.832,33.203,20.508,28.320,81.543
1644358021.491,27.344,31.250,23.926,24.414,70.312
1644358021.495,8.301,31.250,24.902,10.254,-3.418
1644358021.499,3.906,29.785,22.461,12.695,20.508
1644358021.503,15.137,29.785,23.438,22.949,84.961
1644358021.507,17.578,29.297,25.879,24.902,79.590
1644358021.510,7.812,28.809,22.461,13.184,31.738
1644358021.514,3.906,29.297,20.020,7.324,18.555
1644358021.518,16.113,31.250,20.996,18.555,69.824
1644358021.522,33.203,33.691,20.508,24.414,69.824
1644358021.526,28.809,34.180,19.531,22.949,79.102
1644358021.526,15.625,33.203,20.508,19.531,65.430
1644358021.530,22.461,31.738,20.508,16.113,45.898
1644358021.534,39.062,31.250,22.461,28.320,58.594
1644358021.538,33.203,30.273,26.367,32.227,61.523
1644358021.542,20.508,32.715,25.879,23.926,45.898
1644358021.546,31.250,33.203,23.438,28.809,70.801
1644358021.550,44.922,29.785,24.414,36.133,123.047
1644358021.553,34.668,29.297,25.879,34.668,78.613
1644358021.557,15.137,32.227,24.414,32.715,27.832
1644358021.561,9.766,33.203,23.438,27.832,30.273
1644358021.565,23.926,30.762,23.926,31.738,68.848
1644358021.569,32.715,30.762,20.508,35.156,57.617
1644358021.542,20.508,33.691,23.438,28.320,31.250
1644358021.546,8.789,33.203,27.344,23.926,72.754
1644358021.550,16.602,34.668,26.367,15.625,50.781
1644358021.554,32.715,35.645,26.855,14.648,37.598
1644358021.558,29.297,31.738,29.297,22.949,63.477
1644358021.562,11.719,31.250,33.203,21.484,50.781
1644358021.566,16.113,32.227,31.738,20.020,64.941
1644358021.569,32.227,32.715,25.391,25.391,96.680
1644358021.573,37.109,36.621,22.949,19.531,100.098
1644358021.577,20.996,35.156,24.414,9.277,42.480
1644358021.581,16.602,31.738,22.461,6.836,8.301
1644358021.585,34.180,32.715,21.973,18.066,10.254
1644358021.601,30.273,34.180,22.461,20.508,23.926
1644358021.605,8.301,32.227,21.973,3.906,0.488
1644358021.609,1.465,28.809,25.879,-4.395,-54.688
1644358021.613,19.531,30.273,27.832,3.418,20.508
1644358021.617,26.855,30.762,27.832,6.348,3.906
1644358021.621,5.371,31.250,28.320,-7.324,-71.777
1644358021.625,-7.812,33.203,26.855,-16.113,-4.883
1644358021.628,8.789,32.715,29.785,-1.465,-38.574
1644358021.632,22.461,29.785,30.762,4.395,-38.086
1644358021.636,15.137,32.715,30.762,-3.906,22.461
1644358021.640,-3.418,32.227,28.809,-13.672,-10.742
1644358021.644,-0.977,31.250,26.855,-13.184,-28.809
1644358021.795,12.207,35.156,28.809,0.000,-20.996
1644358021.799,10.742,35.645,29.297,-2.441,-31.738
1644358021.803,-1.953,32.715,28.809,-7.324,-52.246
1644358021.807,-9.766,30.762,27.832,-5.859,-38.574
1644358021.811,2.930,31.250,30.762,1.465,-15.625
1644358021.815,11.230,31.250,28.320,7.324,-17.578
1644358021.819,-1.953,35.156,26.367,0.977,-34.180
1644358021.822,-7.324,34.668,27.832,-1.465,-54.199
1644358021.826,5.371,32.227,26.855,5.859,-39.551
1644358021.830,13.672,34.180,27.832,9.766,-19.043
1644358021.834,0.000,34.180,27.832,4.395,34.180
1644358021.838,-3.418,35.156,25.879,6.348,23.926
1644358021.800,20.508,36.133,24.902,14.160,-15.625
1644358021.804,31.738,38.574,26.367,19.043,-18.066
1644358021.808,19.531,38.574,29.297,19.043,-18.066
1644358021.812,2.930,37.598,31.250,15.625,-10.254
1644358021.816,14.648,39.551,30.273,18.066,0.488
1644358021.820,33.203,37.598,29.297,29.297,6.836
1644358021.824,32.227,36.621,28.809,32.227,20.996
1644358021.827,18.066,36.621,29.297,20.508,37.598
1644358021.831,16.113,35.156,31.250,19.043,-13.184
1644358021.835,28.320,34.180,27.832,30.762,-35.645
1644358021.839,30.273,33.691,23.926,32.715,-5.859
1644358021.843,17.578,32.715,25.391,22.949,-19.043
1644358021.805,9.277,33.203,25.391,21.484,-35.645
1644358021.809,25.391,31.250,23.926,29.785,16.113
1644358021.813,41.016,31.738,22.461,41.504,15.625
1644358021.817,33.203,34.668,24.902,40.039,11.719
1644358021.821,20.020,32.227,25.879,29.297,14.160
1644358021.825,32.227,32.227,20.508,30.273,58.594
1644358021.829,50.293,34.668,22.949,37.598,50.781
1644358021.832,41.016,32.715,26.855,32.715,29.297
1644358021.836,23.438,33.691,21.484,27.344,11.230
1644358021.840,19.043,32.715,20.020,31.738,0.000
1644358021.844,30.762,29.785,23.926,39.551,52.734
1644358021.848,35.156,28.809,25.391,40.527,61.523
1644358021.814,22.461,29.297,26.855,38.574,47.852
1644358021.818,27.344,33.203,26.855,37.598,53.223
1644358021.822,40.527,32.227,23.926,38.086,13.672
1644358021.826,35.645,27.832,22.461,41.504,-7.324
1644358021.830,22.461,24.902,25.391,35.156,20.020
1644358021.834,14.160,25.391,25.391,28.809,52.734
1644358021.838,24.902,27.832,24.414,35.156,75.195
1644358021.841,34.668,25.391,25.391,40.039,40.039
1644358021.845,30.762,25.879,26.367,37.109,50.293
1644358021.849,15.137,29.785,24.414,27.344,61.523
1644358021.853,13.672,29.785,24.414,27.832,21.973
1644358021.857,34.668,28.320,26.367,37.109,-3.418
1644358021.825,36.133,29.785,25.391,32.715,5.371
1644358021.829,19.043,30.273,25.879,22.461,8.301
1644358021.833,19.531,28.809,25.391,24.414,23.926
1644358021.837,31.250,31.738,25.391,38.086,67.383
1644358021.841,31.250,32.715,27.344,36.133,58.105
1644358021.845,17.578,31.738,23.926,20.996,16.113
1644358021.849,14.648,34.180,21.973,17.578,-51.758
1644358021.852,30.273,34.180,24.902,21.973,-1.465
1644358021.856,36.621,32.227,25.391,28.809,80.078
1644358021.860,22.461,29.785,22.949,26.855,43.945
1644358021.864,17.090,31.250,21.484,13.672,42.480
1644358021.868,27.832,30.273,21.484,5.859,3.906
1644358021.871,29.297,26.855,23.438,5.859,17.578
1644358021.875,12.695,27.832,23.438,14.160,34.180
1644358021.879,-0.977,31.250,25.879,18.066,47.852
1644358021.883,13.672,32.227,26.855,18.066,51.758
1644358021.887,32.227,31.738,23.438,29.297,39.551
1644358021.891,23.926,29.297,24.902,34.668,76.660
1644358021.895,9.277,32.227,25.879,21.973,73.730
1644358021.898,13.184,31.738,22.461,18.066,44.922
1644358021.902,29.785,29.297,22.949,33.691,80.566
1644358021.906,33.203,33.203,24.414,33.691,82.520
1644358021.910,18.555,35.156,22.949,21.973,14.648
1644358021.914,9.766,33.203,22.949,16.602,-35.156
1644358021.930,25.391,32.715,21.973,21.484,-20.996
1644358021.934,37.598,33.691,21.973,28.809,32.227
1644358021.938,31.250,36.133,20.508,26.855,34.668
1644358021.942,22.461,35.645,20.508,23.926,2.930
1644358021.946,34.668,34.668,21.484,33.691,31.250
1644358021.950,43.945,36.621,21.484,35.156,19.531
1644358021.954,35.645,35.156,23.926,29.297,9.766
1644358021.957,26.855,34.668,24.902,29.785,59.082
1644358021.961,28.809,35.156,24.902,26.367,14.160
1644358021.965,41.016,30.762,23.926,28.320,9.277
1644358021.969,38.574,28.320,24.414,28.320,-22.461
1644358021.973,16.602,28.809,26.855,24.414,1.465
1644358021.976,21.973,31.738,26.855,21.973,61.035
1644358021.980,35.645,32.227,23.926,22.949,21.973
1644358021.984,31.250,30.762,24.902,28.320,-3.906
1644358021.988,20.508,31.738,24.902,23.926,4.395
1644358021.992,6.836,29.785,23.926,15.625,14.648
1644358021.996,23.926,29.297,24.902,20.996,58.594
1644358022.000,37.109,30.273,24.414,26.367,44.922
1644358022.003,24.414,30.762,23.926,24.414,0.488
1644358022.007,12.695,31.250,27.344,16.602,-15.625
1644358022.011,19.043,30.273,28.320,12.695,-9.277
1644358022.015,29.297,31.738,25.879,18.555,18.555
1644358022.019,25.391,30.762,25.391,19.531,-4.883
1644358022.036,7.812,29.785,24.414,13.672,1.953
1644358022.040,11.230,31.250,20.996,14.160,9.277
1644358022.044,30.273,30.273,21.973,25.879,58.105
1644358022.048,34.180,27.344,25.879,32.227,84.961
1644358022.052,17.578,28.320,23.438,22.461,30.762
1644358022.056,8.301,28.809,24.414,19.531,14.648
1644358022.060,25.879,28.320,24.902,32.227,17.578
1644358022.063,32.227,30.762,21.973,41.504,54.688
1644358022.067,16.602,29.785,25.879,26.367,41.016
1644358022.071,8.789,28.320,26.367,17.578,24.414
1644358022.075,22.949,28.320,20.996,31.250,-4.883
1644358022.079,39.062,29.785,21.973,40.039,45.898
1644358022.187,33.203,32.227,22.461,41.016,38.574
1644358022.191,20.020,35.645,20.996,37.109,-23.926
1644358022.195,31.738,35.645,21.484,41.504,70.312
1644358022.199,41.992,34.668,23.438,48.340,65.430
1644358022.203,32.715,32.715,23.438,41.992,26.367
1644358022.207,21.484,32.715,24.902,34.668,21.973
1644358022.211,19.531,33.691,20.996,35.156,12.695
1644358022.214,41.504,33.203,19.043,47.363,53.223
1644358022.218,46.875,34.180,20.996,49.805,51.270
1644358022.222,23.438,32.715,19.531,35.645,90.332
1644358022.226,19.531,32.227,19.531,35.156,96.191
1644358022.230,38.574,33.203,23.926,43.945,44.434
1644358022.190,44.922,33.203,23.926,38.086,33.691
1644358022.194,27.344,35.156,19.531,29.297,25.391
1644358022.198,16.113,37.109,19.531,25.391,37.109
1644358022.202,29.785,35.156,20.996,27.832,53.223
1644358022.206,42.480,35.645,20.996,36.621,52.734
1644358022.210,38.086,38.086,22.949,36.621,36.133
1644358022.214,23.926,38.574,23.926,31.738,-4.395
1644358022.217,30.762,36.621,23.438,32.227,3.906
1644358022.221,37.598,34.668,23.438,37.109,42.480
1644358022.225,35.156,33.691,20.508,37.598,85.938
1644358022.229,21.973,33.691,20.508,28.809,70.312
1644358022.233,11.230,33.203,22.461,24.902,43.457
1644358022.195,23.438,29.785,21.973,33.691,98.633
1644358022.199,27.832,30.762,21.973,40.527,99.609
1644358022.203,24.414,34.180,22.461,34.668,41.016
1644358022.207,18.066,30.273,20.996,27.344,-20.996
1644358022.211,24.414,25.879,21.484,29.785,2.441
1644358022.215,38.574,28.320,23.438,35.645,41.504
1644358022.219,27.344,30.273,23.926,30.762,13.672
1644358022.222,14.648,27.344,22.949,22.461,-16.113
1644358022.226,25.879,28.320,21.484,24.902,-7.324
1644358022.230,38.086,30.273,22.461,33.203,55.176
1644358022.234,33.691,30.762,21.484,31.738,26.855
1644358022.238,20.996,31.738,20.508,26.855,32.227
1644358022.204,24.902,32.227,20.508,28.809,78.125
1644358022.208,33.203,29.785,20.020,30.762,32.227
1644358022.212,35.156,30.273,21.484,27.832,38.574
1644358022.216,23.926,34.668,26.367,20.020,70.801
1644358022.220,19.043,31.738,26.855,17.578,33.691
1644358022.224,28.809,32.715,24.414,22.949,100.098
1644358022.228,34.668,44.434,25.391,27.344,122.070
1644358022.231,23.926,41.992,26.367,22.461,24.414
1644358022.235,10.254,35.645,26.367,19.043,24.414
1644358022.239,25.391,40.039,23.926,23.438,21.973
1644358022.243,37.109,35.645,21.484,20.996,-0.488
1644358022.247,18.066,42.480,29.297,10.254,41.992
1644358022.247,-9.277,56.152,28.809,-9.766,70.312
1644358022.251,-17.090,59.082,23.438,-20.996,66.895
1644358022.255,-10.254,63.477,25.879,-18.555,39.551
1644358022.259,-22.461,67.871,27.344,-34.180,45.898
1644358022.263,-70.312,74.707,27.344,-74.707,42.969
1644358022.267,-83.008,82.031,29.297,-86.914,61.523
1644358022.271,-82.031,84.961,29.785,-90.820,110.352
1644358022.274,-111.328,99.121,25.391,-119.629,73.242
1644358022.278,-141.113,108.398,17.578,-145.020,38.574
1644358022.282,-166.992,102.539,13.184,-166.016,27.832
1644358022.286,-166.992,101.562,17.090,-175.293,28.809
1644358022.290,-177.734,104.492,24.414,-191.895,42.969
1644358022.292,-204.590,99.609,28.320,-210.449,22.461
1644358022.296,-212.402,93.262,29.785,-215.332,15.137
1644358022.300,-197.754,92.773,31.738,-211.426,19.531
1644358022.304,-182.617,92.285,34.180,-198.730,33.203
1644358022.308,-181.641,91.797,35.156,-187.012,29.297
1644358022.312,-187.500,88.867,36.133,-185.059,59.082
1644358022.316,-161.621,88.379,35.156,-178.223,15.137
1644358022.319,-127.930,86.426,31.738,-151.855,8.789
1644358022.323,-115.723,81.055,29.785,-128.906,31.738
1644358022.327,-112.793,77.148,25.879,-118.652,23.438
1644358022.331,-91.309,74.219,26.367,-101.074,25.391
1644358022.335,-61.035,67.383,26.367,-77.148,16.602
1644358022.396,-40.527,62.012,23.926,-52.734,4.395
1644358022.400,-32.227,59.082,22.461,-37.598,-19.043
1644358022.404,-22.461,50.781,21.973,-19.531,-44.434
1644358022.408,9.766,44.922,21.973,2.930,-12.207
1644358022.412,31.250,38.086,14.648,13.184,-4.395
1644358022.416,38.574,28.809,16.602,28.320,-25.879
1644358022.420,34.668,23.438,18.555,34.668,-3.906
1644358022.423,49.805,16.602,13.672,42.480,19.531
1644358022.427,72.754,7.812,16.602,63.965,32.715
1644358022.431,73.242,4.395,18.066,71.289,19.531
1644358022.435,62.988,1.465,14.648,74.219,4.883
1644358022.439,72.266,-1.465,12.207,89.355,35.645
1644358022.401,89.844,-2.930,13.672,102.051,24.902
1644358022.405,101.562,-5.371,14.160,101.562,12.695
1644358022.409,97.656,-5.371,17.578,98.145,-11.719
1644358022.413,94.727,-5.371,20.996,103.027,-19.043
1644358022.417,111.328,-7.812,19.043,113.281,5.371
1644358022.421,113.281,-10.742,18.555,117.676,-20.508
1644358022.425,92.285,-11.719,19.043,112.305,-34.668
1644358022.428,94.727,-9.277,20.020,115.234,-40.527
1644358022.432,117.676,-9.277,20.508,125.977,-11.719
1644358022.436,119.629,-10.254,22.461,125.488,17.090
1644358022.440,111.328,-7.324,22.949,119.629,-1.465
1644358022.444,100.098,-4.395,20.508,112.305,-24.414
1644358022.501,104.004,-6.348,21.484,113.281,28.809
1644358022.505,117.188,-5.859,21.973,120.117,23.438
1644358022.509,108.887,-2.930,21.973,120.605,-8.789
1644358022.513,93.262,-2.441,22.949,116.211,39.062
1644358022.517,100.098,-3.906,21.973,112.305,24.902
1644358022.521,114.746,-1.465,20.020,117.676,-6.836
1644358022.525,113.281,2.441,20.996,120.605,14.648
1644358022.528,100.586,3.418,25.391,112.305,28.320
1644358022.532,101.074,4.883,24.414,104.980,-9.766
1644358022.536,112.793,6.348,22.461,102.539,-37.109
1644358022.540,110.352,4.883,24.414,103.516,19.043
1644358022.544,99.609,6.836,24.414,101.074,57.617
1644358022.505,89.844,11.230,22.461,95.703,41.992
1644358022.509,94.727,12.207,19.043,99.609,42.480
1644358022.513,104.492,14.160,16.602,99.121,57.129
1644358022.517,94.238,13.184,20.020,94.727,46.387
1644358022.521,76.660,9.277,20.996,88.379,51.270
1644358022.525,85.449,11.230,17.578,81.543,77.637
1644358022.529,97.656,16.113,18.555,87.402,56.152
1644358022.532,87.402,15.137,22.461,87.402,11.719
1644358022.536,71.777,12.695,25.391,83.008,24.414
1644358022.540,69.824,15.137,22.949,84.961,33.691
1644358022.544,83.984,17.578,20.996,83.496,16.113
1644358022.548,82.520,17.090,22.461,78.613,22.461
1644358022.547,66.406,19.043,22.461,70.801,31.738
1644358022.551,59.082,19.043,20.996,62.500,68.848
1644358022.555,68.359,19.043,20.996,65.918,64.453
1644358022.559,76.172,22.461,22.949,70.801,41.992
1644358022.563,62.500,21.484,22.461,57.129,48.340
1644358022.567,47.852,23.438,21.484,45.898,40.039
1644358022.571,55.176,25.391,20.996,44.922,15.137
1644358022.574,66.406,23.438,20.508,49.805,9.277
1644358022.578,55.176,22.949,21.973,48.340,-14.648
1644358022.582,35.156,24.414,21.484,37.109,31.250
1644358022.586,39.551,25.879,21.484,38.086,75.195
1644358022.590,51.758,26.855,20.996,37.109,78.613
1644358022.576,48.340,26.855,22.461,32.227,34.180
1644358022.580,41.016,26.855,25.879,32.715,-22.461
1644358022.584,41.504,27.344,23.926,30.762,44.922
1644358022.588,47.852,26.367,20.996,36.621,-4.883
1644358022.592,45.898,24.414,23.926,39.551,8.789
1644358022.596,30.273,23.438,25.391,25.879,18.066
1644358022.600,23.926,23.926,24.414,24.414,-10.742
1644358022.603,33.203,24.414,24.414,36.621,74.219
1644358022.607,36.621,25.391,21.484,38.574,29.297
1644358022.611,30.273,26.367,20.508,28.809,-4.395
1644358022.615,17.578,27.832,22.949,17.578,11.719
1644358022.619,24.902,30.762,20.996,13.672,31.738
1644358022.621,37.109,32.227,22.461,24.414,39.062
1644358022.625,28.320,30.273,27.344,24.414,33.691
1644358022.629,12.207,28.320,28.320,13.184,5.859
1644358022.633,8.789,25.879,25.879,14.160,-61.523
1644358022.637,21.484,23.926,26.855,21.973,-19.531
1644358022.641,27.344,25.391,27.344,18.066,5.859
1644358022.645,13.672,26.367,25.391,9.766,-9.766
1644358022.648,6.836,28.809,26.855,12.695,5.371
1644358022.652,22.949,28.809,29.297,25.879,40.527
1644358022.656,33.203,29.297,28.809,31.738,13.184
1644358022.660,19.043,31.250,25.879,21.973,5.371
1644358022.664,8.301,31.250,22.949,17.090,41.504
1644358022.681,19.043,31.250,22.461,25.879,3.418
1644358022.685,32.227,31.250,23.438,32.227,15.625
1644358022.689,24.414,30.762,22.949,25.879,41.992
1644358022.693,13.672,31.250,25.391,19.531,20.996
1644358022.697,24.414,30.273,27.832,28.320,22.461
1644358022.701,33.203,30.273,28.809,29.297,74.707
1644358022.705,31.250,32.227,28.809,29.297,96.680
1644358022.708,17.090,31.738,28.809,31.250,84.961
1644358022.712,16.113,30.273,29.297,29.297,50.781
1644358022.716,30.762,30.273,27.344,34.668,33.691
1644358022.720,34.668,29.785,25.391,41.992,32.715
1644358022.724,19.043,28.320,26.855,39.551,1.465
1644358022.756,12.695,27.344,25.391,33.203,12.695
1644358022.760,31.250,25.391,24.902,38.086,47.852
1644358022.764,33.691,20.508,23.926,40.039,34.180
1644358022.768,18.066,17.578,22.461,33.203,24.414
1644358022.772,13.672,13.184,25.391,31.738,26.855
1644358022.776,30.762,7.324,26.367,33.203,71.289
1644358022.780,39.551,0.488,23.438,38.086,45.410
1644358022.783,28.809,-6.348,22.949,31.738,37.598
1644358022.787,20.020,-12.207,23.438,19.531,78.613
1644358022.791,35.156,-20.020,24.902,29.297,59.082
1644358022.795,56.641,-29.297,25.879,40.527,30.762
1644358022.799,56.152,-39.551,24.902,42.969,83.984
1644358022.761,38.574,-47.852,24.902,38.574,108.398
1644358022.765,34.180,-56.641,26.855,33.691,54.199
1644358022.769,47.852,-65.430,27.832,41.504,40.039
1644358022.773,41.992,-70.312,28.809,46.387,92.285
1644358022.777,19.531,-76.172,28.320,39.062,82.031
1644358022.781,17.090,-79.590,27.344,33.691,81.055
1644358022.785,35.645,-80.566,26.855,37.598,104.492
1644358022.788,38.574,-78.613,24.902,40.527,65.430
1644358022.792,25.391,-74.707,24.902,32.715,90.820
1644358022.796,22.949,-72.754,22.949,26.367,160.156
1644358022.800,32.715,-71.289,19.531,29.785,144.043
1644358022.804,39.062,-69.824,21.484,38.574,78.125
1644358022.847,32.715,-67.871,24.902,43.945,81.055
1644358022.851,19.043,-64.453,21.973,29.785,91.797
1644358022.855,26.855,-56.641,22.461,27.832,90.332
1644358022.859,48.340,-42.969,22.461,39.062,146.973
1644358022.863,49.316,-27.832,21.484,40.039,135.742
1644358022.867,33.203,-13.672,25.391,34.668,94.238
1644358022.871,31.738,-2.441,24.902,34.180,138.672
1644358022.874,49.316,5.859,23.438,43.945,160.156
1644358022.878,49.316,13.672,23.438,41.992,143.555
1644358022.882,32.715,19.531,24.414,35.156,105.957
1644358022.886,24.414,22.461,25.391,33.691,115.234
1644358022.890,37.109,25.879,23.926,34.668,142.090
1644358022.861,38.574,29.785,22.949,34.668,145.020
1644358022.865,23.926,32.715,23.438,27.344,134.277
1644358022.869,17.090,39.062,23.926,20.996,74.707
1644358022.873,28.320,41.016,22.461,28.320,96.680
1644358022.877,38.574,42.480,24.414,30.762,141.602
1644358022.881,31.250,45.898,26.855,23.926,132.324
1644358022.885,20.020,47.363,27.344,18.066,97.656
1644358022.888,23.926,47.852,25.879,20.996,86.426
1644358022.892,29.785,44.922,24.414,31.738,115.723
1644358022.896,33.203,49.316,23.926,28.809,144.043
1644358022.900,20.508,54.199,23.926,17.090,100.586
1644358022.904,12.207,52.246,28.809,19.043,90.820
1644358022.906,40.527,53.711,27.344,30.762,169.434
1644358022.910,49.805,57.129,25.879,34.180,181.152
1644358022.914,32.715,55.664,26.855,28.809,174.805
1644358022.918,18.555,56.152,25.879,21.973,137.207
1644358022.922,28.320,56.641,24.902,24.414,91.309
1644358022.926,43.457,55.176,24.902,32.715,130.371
1644358022.930,38.086,57.617,25.879,28.809,170.410
1644358022.933,15.137,56.641,23.926,16.602,102.051
1644358022.937,23.926,53.711,22.461,20.508,104.004
1644358022.941,28.809,53.711,22.949,28.320,157.715
1644358022.945,24.902,53.223,24.414,26.855,144.531
1644358022.949,26.855,53.223,21.484,23.926,115.723
1644358022.951,23.926,51.270,20.508,19.043,109.375
1644358022.955,33.691,48.828,21.973,22.461,148.926
1644358022.959,21.973,47.852,20.996,26.855,167.480
1644358022.963,0.488,47.852,21.484,20.020,156.738
1644358022.967,7.324,47.852,20.508,18.555,125.977
1644358022.971,22.461,44.434,20.020,28.809,141.113
1644358022.975,19.531,44.434,20.020,27.832,162.598
1644358022.978,15.625,46.387,20.508,14.648,138.184
1644358022.982,15.137,43.457,20.996,17.090,118.164
1644358022.986,25.391,45.898,21.973,27.832,150.391
1644358022.990,37.109,48.828,21.484,29.785,170.410
1644358022.994,40.039,50.293,22.949,28.320,144.043
1644358022.996,19.043,51.758,24.414,25.879,113.770
1644358023.000,16.113,51.758,23.926,29.297,133.789
1644358023.004,47.363,52.734,22.461,37.109,147.949
1644358023.008,48.340,46.387,23.926,34.668,157.227
1644358023.012,28.809,43.945,27.344,29.785,155.762
1644358023.016,25.879,48.340,25.879,27.832,109.375
1644358023.020,42.480,47.852,26.855,32.227,111.816
1644358023.023,38.086,44.922,24.902,35.645,168.457
1644358023.027,26.367,44.922,21.973,26.855,170.410
1644358023.031,27.832,47.363,20.020,23.438,144.531
1644358023.035,39.062,48.828,21.973,30.273,176.758
1644358023.039,45.410,49.316,22.461,32.715,202.148
1644358023.086,40.039,48.828,20.996,28.809,180.176
1644358023.090,28.320,48.828,23.438,23.926,146.973
1644358023.094,27.832,47.852,23.438,23.926,168.945
1644358023.098,37.109,45.410,23.438,32.715,208.984
1644358023.102,37.598,43.457,24.414,33.203,203.613
1644358023.106,12.695,42.969,24.414,26.367,157.715
1644358023.110,10.254,42.969,23.438,25.879,145.996
1644358023.113,36.621,40.039,23.438,29.297,196.289
1644358023.117,37.598,40.039,24.414,32.715,205.078
1644358023.121,27.832,42.480,25.879,27.832,169.922
1644358023.125,20.508,40.039,23.926,27.344,142.090
1644358023.129,36.133,37.109,21.484,33.203,180.176
1644358023.090,44.434,38.086,21.484,35.645,218.262
1644358023.094,23.438,36.133,21.484,33.691,203.125
1644358023.098,9.277,32.715,25.879,28.809,160.645
1644358023.102,20.996,32.227,25.879,29.785,176.270
1644358023.106,34.180,30.762,25.879,38.086,203.125
1644358023.110,26.855,30.762,28.809,36.621,177.734
1644358023.114,14.160,32.715,28.320,29.297,160.156
1644358023.117,24.414,32.715,26.367,33.203,159.180
1644358023.121,40.527,35.645,26.367,41.504,189.941
1644358023.125,40.039,39.551,27.344,40.527,196.777
1644358023.129,26.367,39.551,24.414,33.691,174.316
1644358023.133,29.297,37.598,22.949,33.691,175.781
1644358023.161,44.434,37.598,25.879,38.086,189.453
1644358023.165,35.645,40.527,23.926,33.691,197.754
1644358023.169,13.672,38.574,25.879,24.414,203.125
1644358023.173,15.137,37.109,28.320,21.484,178.711
1644358023.177,12.207,39.062,28.809,24.414,157.715
1644358023.181,13.672,38.574,30.762,20.996,141.113
1644358023.185,33.691,37.598,30.273,14.160,150.391
1644358023.188,31.738,38.086,29.297,20.020,150.391
1644358023.192,32.715,39.551,27.832,24.414,164.062
1644358023.196,32.715,41.992,23.926,23.438,172.363
1644358023.200,24.902,41.504,22.949,21.484,136.719
1644358023.204,15.137,38.574,24.414,14.160,130.371
1644358023.191,25.391,39.551,24.414,19.043,117.676
1644358023.195,34.180,39.062,24.414,23.438,138.184
1644358023.199,29.785,41.016,27.344,19.531,127.441
1644358023.203,20.508,43.945,28.320,17.578,59.570
1644358023.207,24.902,42.480,25.391,17.090,23.438
1644358023.211,32.227,40.527,24.414,27.344,40.527
1644358023.215,27.344,39.551,25.879,24.902,43.457
1644358023.218,20.508,41.992,25.391,11.230,-14.160
1644358023.222,10.254,39.062,25.391,4.395,-55.664
1644358023.226,23.438,38.086,26.855,6.348,-46.875
1644358023.230,26.367,40.039,26.367,6.836,-24.902
1644358023.234,5.859,38.086,27.832,1.465,-64.941
1644358023.327,-8.301,37.598,27.344,-11.719,-170.410
1644358023.331,3.418,38.574,25.879,-9.277,-151.367
1644358023.335,5.859,39.551,23.926,0.488,-111.816
1644358023.339,-0.488,38.574,26.855,-5.371,-171.875
1644358023.343,-12.207,39.062,26.855,-17.090,-243.652
1644358023.347,-27.344,37.109,25.879,-19.043,-274.902
1644358023.351,4.883,34.180,26.367,-9.277,-230.469
1644358023.354,18.555,39.062,23.926,-14.160,-268.066
1644358023.358,-3.418,39.062,23.926,-26.367,-350.586
1644358023.362,-8.789,36.621,23.438,-22.949,-355.957
1644358023.366,0.977,36.621,23.926,-13.672,-356.934
1644358023.370,8.789,35.156,24.902,-12.207,-385.742
1644358023.331,-8.301,35.156,23.926,-20.020,-422.852
1644358023.335,-26.367,34.180,24.414,-21.973,-454.102
1644358023.339,-21.973,30.273,26.855,-15.137,-475.586
1644358023.343,-11.719,29.785,27.344,-16.113,-434.570
1644358023.347,-25.879,30.273,25.391,-23.438,-426.758
1644358023.351,-26.367,29.297,23.926,-27.344,-451.172
1644358023.355,-29.297,31.738,23.438,-20.508,-410.645
1644358023.358,-14.648,31.738,21.973,-16.113,-399.902
1644358023.362,-31.250,31.738,20.996,-19.043,-423.340
1644358023.366,-40.039,32.227,20.020,-21.484,-353.516
1644358023.370,0.000,32.227,18.555,-17.578,-337.402
1644358023.374,8.301,32.715,20.020,-9.277,-296.387
1644358023.335,10.254,37.109,21.484,-9.277,-248.535
1644358023.339,-7.324,35.645,21.484,-12.695,-279.785
1644358023.343,-25.879,32.715,20.020,-13.184,-244.629
1644358023.347,-9.766,32.227,22.461,-7.812,-188.965
1644358023.351,3.418,33.203,24.414,0.000,-163.086
1644358023.355,-11.719,33.691,25.879,1.953,-166.992
1644358023.359,-0.488,31.738,25.391,0.488,-185.547
1644358023.362,0.000,31.250,21.973,8.301,-197.754
1644358023.366,13.672,30.762,19.043,18.555,-229.004
1644358023.370,17.578,33.691,22.461,24.414,-156.250
1644358023.374,4.395,34.668,25.879,20.508,-104.980
1644358023.378,20.020,33.203,25.391,22.949,-157.227
1644358023.371,42.969,35.156,24.414,32.715,-121.094
1644358023.375,16.113,36.621,22.461,30.762,-109.375
1644358023.379,5.859,34.180,22.949,24.902,-66.895
1644358023.383,32.715,33.691,23.926,24.414,-42.969
1644358023.387,51.270,37.109,22.949,31.250,-68.848
1644358023.391,43.457,37.109,21.484,40.039,16.602
1644358023.395,29.297,37.598,23.926,38.574,15.625
1644358023.398,31.250,36.133,27.832,33.203,-85.449
1644358023.402,39.062,34.668,27.344,39.062,-39.551
1644358023.406,57.129,35.156,24.902,51.758,58.105
1644358023.410,53.223,33.203,26.367,50.293,37.598
1644358023.414,31.738,34.180,27.832,42.969,23.438
1644358023.446,44.434,34.180,26.855,54.199,35.156
1644358023.450,49.316,34.668,26.367,61.035,-9.277
1644358023.454,32.715,36.133,27.832,52.246,-32.227
1644358023.458,13.672,35.156,30.273,47.363,-0.977
1644358023.462,17.578,32.715,27.344,53.711,22.461
1644358023.466,52.246,32.715,26.367,57.617,-22.949
1644358023.470,38.086,36.621,27.344,51.758,4.883
1644358023.473,20.508,41.016,25.391,44.922,31.250
1644358023.477,-0.977,35.645,28.320,43.945,14.160
1644358023.481,20.996,33.203,27.832,46.387,-24.902
1644358023.485,65.918,39.062,26.367,44.922,-0.488
1644358023.489,38.086,39.551,28.809,32.227,-7.812
1644358023.507,24.414,40.527,27.344,24.902,-24.414
1644358023.511,28.809,40.527,24.414,32.227,4.883
1644358023.515,25.391,37.598,25.391,33.203,-13.672
1644358023.519,34.180,37.109,22.461,27.832,36.621
1644358023.523,27.832,39.062,21.973,23.926,107.422
1644358023.527,26.367,36.621,24.902,23.438,24.414
1644358023.531,35.645,37.598,23.926,25.879,-27.832
1644358023.534,6.348,35.156,22.461,25.391,46.875
1644358023.538,-14.160,35.156,25.391,23.926,2.441
1644358023.542,21.484,39.062,22.949,25.879,15.137
1644358023.546,40.527,35.645,20.508,31.738,7.812
1644358023.550,35.645,31.250,25.879,36.621,-2.930
1644358023.511,25.879,33.203,27.344,28.809,-49.316
1644358023.515,18.555,35.156,27.344,22.949,-25.879
1644358023.519,26.855,34.668,27.832,27.832,81.543
1644358023.523,38.574,34.668,25.879,28.809,19.531
1644358023.527,22.461,34.180,24.902,22.949,-33.203
1644358023.531,-5.371,31.738,26.367,22.461,-7.812
1644358023.535,20.996,32.227,23.438,32.715,36.621
1644358023.538,52.246,34.668,24.902,35.156,74.707
1644358023.542,28.809,35.156,25.879,30.762,46.875
1644358023.546,17.578,36.133,23.926,27.832,53.711
1644358023.550,28.320,33.691,24.902,30.762,78.613
1644358023.554,38.086,29.785,27.832,39.551,75.684
1644358023.656,37.598,29.785,26.367,31.738,69.336
1644358023.660,1.465,31.738,26.367,21.973,22.949
1644358023.664,-10.742,29.785,28.320,29.297,-27.344
1644358023.668,28.320,28.809,27.344,36.621,-21.484
1644358023.672,47.363,31.250,28.320,37.109,16.113
1644358023.676,41.504,33.203,29.297,30.762,22.949
1644358023.680,34.180,35.156,29.785,31.738,39.551
1644358023.683,43.945,34.668,27.832,40.039,50.781
1644358023.687,49.316,33.691,25.391,40.527,86.914
1644358023.691,35.156,35.156,24.902,30.273,49.805
1644358023.695,17.578,33.691,26.855,25.879,21.973
1644358023.699,36.133,31.738,30.762,28.320,-12.207
1644358023.661,55.176,33.691,29.297,35.156,11.719
1644358023.665,48.340,34.180,28.809,36.621,45.410
1644358023.669,40.039,32.227,32.715,28.809,25.879
1644358023.673,45.898,31.738,31.738,33.203,34.668
1644358023.677,44.922,30.762,27.832,51.270,-3.418
1644358023.681,40.039,32.227,26.855,50.781,22.461
1644358023.685,36.133,31.738,27.832,34.180,31.250
1644358023.688,31.250,29.785,26.855,31.738,-6.836
1644358023.692,43.945,29.785,25.879,44.434,69.824
1644358023.696,42.969,28.809,26.367,40.527,73.730
1644358023.700,23.926,29.785,23.438,20.020,-2.441
1644358023.704,19.531,32.715,24.902,17.090,-23.926
1644358023.665,35.645,32.227,25.391,25.879,1.465
1644358023.669,39.551,33.203,25.391,39.551,47.363
1644358023.673,29.785,33.203,27.832,47.852,60.547
1644358023.677,29.297,32.227,27.344,43.945,72.754
1644358023.681,42.480,35.645,27.344,25.391,61.523
1644358023.685,45.410,36.621,28.320,31.738,48.828
1644358023.689,34.668,38.086,25.391,37.598,34.668
1644358023.692,20.996,37.598,25.879,27.344,-11.719
1644358023.696,28.320,36.133,27.344,30.762,-9.766
1644358023.700,48.340,37.109,24.414,28.320,62.012
1644358023.704,44.922,38.086,27.832,31.250,8.789
1644358023.708,32.715,40.527,26.855,22.461,-26.855
1644358023.702,34.668,40.039,26.855,33.203,11.230
1644358023.706,46.875,38.086,26.855,44.434,-1.465
1644358023.710,47.852,36.621,26.367,37.598,-53.223
1644358023.714,28.809,34.180,32.227,30.273,-49.316
1644358023.718,15.137,32.227,29.297,26.367,49.805
1644358023.722,27.344,30.273,22.949,26.855,42.480
1644358023.726,35.156,30.273,25.391,27.344,36.133
1644358023.729,23.438,33.203,27.832,21.484,15.625
1644358023.733,8.301,33.691,26.855,13.672,2.930
1644358023.737,18.555,32.715,25.391,16.113,73.242
1644358023.741,33.203,32.715,23.438,24.902,83.008
1644358023.745,30.762,33.691,28.320,33.203,41.016
1644358023.746,19.043,33.203,28.320,27.832,37.598
1644358023.750,15.137,29.785,25.879,28.320,59.082
1644358023.754,33.203,30.273,25.879,27.344,2.441
1644358023.758,31.250,33.691,22.949,13.672,23.438
1644358023.762,14.160,32.715,24.902,20.996,59.082
1644358023.766,22.461,30.762,23.926,35.645,-21.484
1644358023.770,42.969,34.180,21.973,37.598,55.664
1644358023.773,45.898,34.668,24.414,34.180,116.211
1644358023.777,35.156,32.227,25.391,32.227,83.496
1644358023.781,23.926,32.715,25.391,34.180,41.016
1644358023.785,29.297,30.273,27.832,29.297,-9.277
1644358023.789,42.480,33.203,28.809,39.062,19.531
1644358023.806,31.738,36.133,27.344,41.016,46.875
1644358023.810,16.113,34.668,26.367,26.855,20.508
1644358023.814,27.832,35.156,23.438,30.273,-4.395
1644358023.818,44.922,35.156,23.926,33.203,33.691
1644358023.822,37.598,33.203,24.902,37.109,35.156
1644358023.826,19.043,34.180,22.949,28.809,29.297
1644358023.830,20.020,35.156,22.949,24.414,7.324
1644358023.833,32.715,31.250,24.414,36.621,-0.977
1644358023.837,34.668,31.738,24.902,46.875,55.176
1644358023.841,25.391,34.668,22.461,47.363,23.438
1644358023.845,24.902,32.227,24.902,34.180,19.531
1644358023.849,41.016,30.762,27.832,29.297,72.266
1644358023.851,51.758,30.762,26.367,42.480,46.875
1644358023.855,35.156,31.738,28.320,41.992,61.035
1644358023.859,23.926,32.715,29.297,29.785,37.598
1644358023.863,41.504,30.762,25.879,40.039,-28.320
1644358023.867,51.270,32.227,21.973,48.340,19.043
1644358023.871,39.062,33.203,21.973,39.551,66.895
1644358023.875,23.438,31.250,21.973,30.273,25.391
1644358023.878,31.738,32.227,21.484,34.668,20.020
1644358023.882,49.805,32.715,22.949,47.363,66.895
1644358023.886,40.527,31.738,25.391,44.922,44.922
1644358023.890,25.391,31.738,25.391,39.062,12.207
1644358023.894,32.715,31.250,20.508,28.809,80.078
1644358023.927,42.969,30.273,20.508,36.621,137.695
1644358023.931,44.922,32.227,24.414,44.922,126.953
1644358023.935,34.180,32.715,25.879,36.621,110.352
1644358023.939,30.273,31.738,23.926,35.645,77.637
1644358023.943,42.969,31.250,23.438,40.039,90.332
1644358023.947,48.828,32.715,22.949,38.574,119.141
1644358023.951,36.621,32.227,24.902,22.461,101.562
1644358023.954,24.414,32.715,25.391,20.020,92.285
1644358023.958,36.133,32.227,25.391,28.809,83.496
1644358023.962,38.086,32.715,24.414,31.738,101.074
1644358023.966,27.832,35.156,22.461,33.691,125.488
1644358023.970,24.414,35.156,26.367,33.691,134.766
1644358023.973,17.578,37.109,19.043,21.484,170.410
1644358023.977,35.645,38.574,20.020,19.043,212.402
1644358023.981,52.246,35.156,19.531,36.621,226.562
1644358023.985,44.922,33.691,19.531,38.574,207.031
1644358024.002,21.973,33.691,23.438,25.879,162.109
1644358024.006,18.555,34.180,23.438,26.367,182.129
1644358024.010,38.086,34.180,22.949,33.203,245.605
1644358024.014,41.016,34.668,25.391,31.738,219.727
1644358024.018,20.508,34.668,26.367,24.414,151.855
1644358024.022,8.789,35.156,27.832,22.949,148.438
1644358024.026,16.602,35.156,26.855,30.273,207.520
1644358024.029,31.250,35.156,26.855,25.879,197.754
1644358024.033,23.926,34.180,28.320,10.742,146.973
1644358024.037,12.695,32.227,26.855,8.301,155.762
1644358024.041,18.555,30.273,25.879,20.020,149.902
1644358024.045,13.184,25.391,28.320,22.461,170.898
1644358024.031,18.066,27.832,27.344,16.602,153.320
1644358024.035,0.488,30.273,25.391,15.625,108.887
1644358024.039,-12.207,29.785,22.949,17.578,117.188
1644358024.043,22.949,32.715,21.973,17.090,127.441
1644358024.047,27.344,35.156,23.926,11.230,126.953
1644358024.051,11.230,36.621,23.438,7.324,103.516
1644358024.055,19.531,36.621,25.879,23.438,108.398
1644358024.058,29.785,32.715,29.785,35.156,110.840
1644358024.062,23.438,30.762,27.344,27.832,84.473
1644358024.066,10.742,32.227,27.344,17.090,96.191
1644358024.070,12.207,32.227,27.832,17.090,74.707
1644358024.074,14.648,30.762,27.344,27.832,60.547
1644358024.075,8.789,31.250,28.809,28.320,122.070
1644358024.079,-0.488,27.832,24.902,21.484,132.812
1644358024.083,-0.488,27.832,24.414,23.438,88.379
1644358024.087,26.367,30.273,25.391,29.785,119.141
1644358024.091,41.504,30.273,23.926,28.809,161.133
1644358024.095,20.996,30.762,25.391,26.367,162.109
1644358024.099,17.578,30.273,24.414,27.344,124.023
1644358024.102,36.621,31.250,23.438,30.273,139.648
1644358024.106,45.898,29.297,24.902,41.016,189.941
1644358024.110,34.180,29.297,25.391,45.410,191.895
1644358024.114,19.043,28.809,25.391,31.738,148.926
1644358024.118,29.297,27.344,25.391,25.391,124.023
1644358024.121,31.250,24.414,26.367,35.645,173.828
1644358024.125,30.273,22.949,27.344,34.668,194.824
1644358024.129,27.832,22.949,26.855,27.344,171.387
1644358024.133,23.926,22.461,29.785,30.762,171.387
1644358024.137,29.785,23.438,32.715,40.039,194.824
1644358024.141,21.973,23.438,31.250,42.480,222.168
1644358024.145,20.996,27.344,29.785,32.227,154.297
1644358024.148,11.719,29.297,29.297,31.738,131.348
1644358024.152,33.203,27.832,27.832,43.945,212.891
1644358024.156,36.133,28.809,28.320,43.945,231.934
1644358024.160,17.578,30.273,27.832,34.180,205.078
1644358024.164,21.484,33.203,26.367,25.391,171.387
1644358024.167,24.902,32.715,23.438,24.902,180.176
1644358024.171,33.691,32.227,24.414,29.297,174.316
1644358024.175,16.113,34.668,23.926,22.461,182.129
1644358024.179,5.859,32.715,23.438,18.555,170.898
1644358024.183,25.391,30.273,26.367,23.438,152.344
1644358024.187,35.645,27.832,28.320,23.926,166.504
1644358024.191,36.133,27.344,27.832,19.043,143.555
1644358024.194,22.949,30.762,25.879,19.043,152.832
1644358024.198,23.926,31.250,26.367,18.555,134.766
1644358024.202,36.133,33.203,25.391,22.949,143.555
1644358024.206,23.926,34.180,26.367,27.832,164.551
1644358024.210,32.227,37.109,26.855,26.367,132.324
1644358024.331,42.969,38.086,26.367,31.738,143.066
1644358024.335,42.969,35.645,26.367,41.016,173.828
1644358024.339,54.199,34.668,25.391,43.945,162.109
1644358024.343,32.227,32.715,26.367,37.598,150.391
1644358024.347,21.484,32.227,28.320,34.668,129.883
1644358024.351,39.551,35.156,27.344,31.250,132.812
1644358024.355,41.504,33.691,24.902,31.250,195.801
1644358024.358,39.062,29.297,23.926,31.738,228.516
1644358024.362,18.066,28.320,24.902,20.996,175.293
1644358024.366,23.438,30.762,26.367,23.438,127.930
1644358024.370,43.457,33.203,25.879,29.785,174.805
1644358024.374,41.504,32.227,27.344,28.809,218.750
1644358024.336,20.508,31.250,28.809,27.344,199.219
1644358024.340,16.113,33.203,28.320,22.949,159.668
1644358024.344,39.062,33.203,27.832,29.297,176.270
1644358024.348,49.316,34.180,24.902,31.738,230.469
1644358024.352,33.691,34.668,27.344,26.367,200.195
1644358024.356,18.066,33.203,27.832,25.391,170.410
1644358024.360,35.645,31.250,23.926,23.438,173.828
1644358024.363,40.527,29.297,25.391,26.855,183.594
1644358024.367,27.344,30.762,26.855,17.090,167.969
1644358024.371,18.555,30.273,27.832,16.602,156.738
1644358024.375,27.344,28.320,30.273,35.645,164.062
1644358024.379,38.574,28.809,27.832,35.156,174.805
1644358024.340,34.668,27.344,28.809,29.297,169.434
1644358024.344,18.555,28.320,28.320,18.066,136.719
1644358024.348,18.066,31.250,27.344,11.230,139.160
1644358024.352,38.086,38.086,28.809,20.508,161.133
1644358024.356,38.086,38.574,31.738,23.438,147.461
1644358024.360,4.395,32.715,30.273,12.695,117.188
1644358024.364,4.395,39.551,26.855,10.254,87.402
1644358024.367,35.645,44.434,29.785,16.602,99.121
1644358024.371,33.691,42.480,30.762,13.184,133.789
1644358024.375,9.766,47.852,30.273,0.977,62.500
1644358024.379,-13.184,52.246,29.297,-15.137,28.320
1644358024.383,-13.184,51.758,30.762,-23.926,59.082
1644358024.376,-13.672,53.223,28.809,-24.902,75.195
1644358024.380,-35.156,61.523,30.762,-36.621,73.730
1644358024.384,-55.176,70.801,36.133,-57.129,37.598
1644358024.388,-65.918,69.824,35.156,-68.848,39.062
1644358024.392,-64.453,67.871,36.621,-75.684,31.738
1644358024.396,-79.102,72.754,37.109,-88.867,20.508
1644358024.400,-127.930,81.055,33.691,-120.605,-14.160
1644358024.403,-153.809,92.773,30.273,-157.227,-55.664
1644358024.407,-160.156,100.586,27.344,-173.340,-52.246
1644358024.411,-171.387,97.656,28.320,-175.293,-14.648
1644358024.415,-197.754,97.656,30.762,-189.453,-82.031
1644358024.419,-211.914,99.609,32.227,-206.055,-153.809
1644358024.407,-194.824,95.215,33.691,-207.031,-166.992
1644358024.411,-175.781,92.773,34.180,-199.219,-189.941
1644358024.415,-174.805,90.332,32.715,-192.383,-200.195
1644358024.419,-174.316,85.938,34.180,-182.129,-267.578
1644358024.423,-154.785,86.426,34.180,-169.434,-325.195
1644358024.427,-129.883,81.055,31.250,-145.020,-319.336
1644358024.431,-125.977,72.754,31.250,-136.719,-357.910
1644358024.434,-135.254,69.336,29.297,-141.113,-451.660
1644358024.438,-121.582,64.941,24.414,-130.371,-508.301
1644358024.442,-94.727,59.570,22.461,-112.305,-504.395
1644358024.446,-90.820,53.711,24.902,-102.051,-556.152
1644358024.450,-100.586,48.340,27.832,-99.609,-595.215
1644358024.452,-90.820,41.016,24.414,-93.750,-584.961
1644358024.456,-68.848,33.691,19.043,-83.008,-593.750
1644358024.460,-53.223,29.297,20.996,-64.941,-570.801
1644358024.464,-47.852,29.785,19.531,-55.176,-520.996
1644358024.468,-39.062,23.926,17.578,-49.805,-512.207
1644358024.472,-13.184,16.602,18.555,-27.344,-500.977
1644358024.476,2.930,16.113,17.578,-10.254,-501.465
1644358024.479,4.395,15.137,16.602,-8.789,-486.328
1644358024.483,11.230,11.719,15.137,-0.977,-440.918
1644358024.487,24.902,8.301,14.160,21.973,-396.973
1644358024.491,42.480,3.418,14.160,33.691,-371.582
1644358024.495,53.223,0.488,15.625,38.086,-320.312
1644358024.496,42.480,-0.977,16.602,40.527,-257.812
1644358024.500,47.363,-0.977,15.625,47.363,-260.254
1644358024.504,74.219,0.488,16.602,71.289,-247.070
1644358024.508,77.637,0.000,15.625,82.031,-183.105
1644358024.512,63.477,1.465,14.160,78.125,-199.219
1644358024.516,67.871,2.441,14.160,82.520,-208.496
1644358024.520,90.820,3.906,10.254,91.797,-133.301
1644358024.523,99.121,2.930,6.348,97.168,-131.348
1644358024.527,90.820,-0.488,7.324,94.238,-128.418
1644358024.531,86.914,1.465,11.230,99.609,-96.191
1644358024.535,103.027,3.418,16.113,116.699,-119.141
1644358024.539,118.652,2.930,19.531,126.465,-107.910
1644358024.661,118.164,1.953,23.438,127.930,-116.211
1644358024.665,107.422,1.953,24.902,125.977,-107.422
1644358024.669,114.746,0.488,24.414,135.254,-120.605
1644358024.673,134.766,0.977,21.973,148.438,-109.375
1644358024.677,134.766,4.883,21.973,149.414,-53.223
1644358024.681,118.652,7.812,24.414,143.555,-71.777
1644358024.685,107.910,8.789,23.926,139.648,-61.523
1644358024.688,115.234,7.812,23.438,142.578,-65.918
1644358024.692,119.141,7.812,23.926,141.602,-56.152
1644358024.696,104.492,7.324,23.926,128.418,-16.602
1644358024.700,100.098,6.836,22.461,117.676,-13.184
1644358024.704,121.094,9.766,23.926,125.488,-26.367
1644358024.736,126.953,11.230,26.367,125.977,-69.336
1644358024.740,108.398,11.719,25.391,110.840,-32.227
1644358024.744,99.609,12.207,26.367,106.934,-10.742
1644358024.748,116.211,11.719,26.367,115.723,-36.621
1644358024.752,126.953,12.207,24.902,119.141,-5.371
1644358024.756,111.328,17.090,22.949,111.816,40.039
1644358024.760,95.703,19.043,21.484,98.145,16.113
1644358024.763,101.074,16.602,24.414,98.633,-12.695
1644358024.767,111.816,18.555,25.879,111.816,-8.789
1644358024.771,106.934,21.973,26.855,109.863,-17.578
1644358024.775,90.332,20.020,27.832,102.539,-15.625
1644358024.779,90.820,21.484,23.926,102.539,-1.465
1644358024.741,92.773,23.438,20.508,99.609,45.898
1644358024.745,85.938,25.879,21.973,88.379,53.223
1644358024.749,63.965,28.320,24.414,73.242,-2.930
1644358024.753,49.316,27.344,24.902,65.430,8.301
1644358024.757,64.453,26.367,24.414,64.941,20.020
1644358024.761,63.965,25.391,23.926,56.641,5.859
1644358024.765,49.316,23.926,25.391,49.316,77.148
1644358024.768,36.621,20.508,26.855,41.016,81.543
1644358024.772,49.316,18.066,24.414,33.203,35.156
1644358024.776,61.035,19.043,26.367,37.109,36.133
1644358024.780,48.340,20.508,27.832,31.250,27.832
1644358024.784,39.062,23.926,25.879,20.996,-11.719
1644358024.747,41.016,26.855,25.391,25.879,-12.695
1644358024.751,48.340,27.832,22.949,32.227,33.203
1644358024.755,50.781,29.297,23.438,33.691,74.219
1644358024.759,37.598,31.738,24.414,31.250,51.758
1644358024.763,30.273,31.738,21.973,31.738,60.547
1644358024.767,38.574,31.250,22.949,31.250,52.734
1644358024.771,37.598,31.250,23.438,33.203,31.250
1644358024.774,20.996,31.250,24.414,29.297,66.406
1644358024.778,13.672,30.762,23.926,21.484,58.105
1644358024.782,21.973,29.297,23.438,22.949,55.664
1644358024.786,30.762,28.320,24.902,21.484,27.832
1644358024.790,21.973,27.344,24.414,20.508,-1.465
1644358024.752,9.277,25.879,26.367,8.789,22.461
1644358024.756,23.438,26.855,27.344,10.742,1.953
1644358024.760,35.645,26.855,26.367,12.207,17.578
1644358024.764,31.738,28.320,27.832,13.672,58.105
1644358024.768,19.531,32.227,27.344,15.137,41.992
1644358024.772,21.973,34.180,27.344,16.113,2.930
1644358024.776,40.527,33.691,26.367,31.738,-39.551
1644358024.779,43.945,33.203,29.297,28.809,-25.879
1644358024.783,27.344,33.691,29.785,16.602,19.043
1644358024.787,23.926,34.180,25.879,22.461,40.039
1644358024.791,38.574,32.715,29.785,44.922,-32.715
1644358024.795,41.016,32.227,30.762,50.781,-0.977
1644358024.781,31.250,34.668,31.738,40.527,87.402
1644358024.785,20.508,37.598,31.738,32.715,50.781
1644358024.789,30.273,35.645,29.297,44.434,23.926
1644358024.793,49.805,34.668,28.809,56.641,23.926
1644358024.797,53.223,37.598,29.297,53.711,-7.812
1644358024.801,43.457,37.109,31.250,46.387,4.883
1644358024.805,47.852,36.621,33.691,51.270,16.113
1644358024.808,60.547,35.156,32.715,57.617,48.340
1644358024.812,57.617,36.133,30.762,54.199,63.965
1644358024.816,41.016,37.109,29.785,40.527,23.438
1644358024.820,39.062,34.180,28.320,39.062,15.625
1644358024.824,51.758,31.738,24.414,45.898,-0.977
1644358024.826,55.176,29.297,26.367,43.457,11.230
1644358024.830,34.668,32.227,27.832,39.062,47.363
1644358024.834,21.973,33.203,21.973,34.668,60.547
1644358024.838,41.504,28.320,21.484,36.133,88.379
1644358024.842,50.781,27.344,25.391,39.062,79.102
1644358024.846,33.203,27.832,26.367,40.039,32.227
1644358024.850,11.230,32.227,25.391,30.762,0.977
1644358024.853,26.855,32.227,24.902,36.621,92.773
1644358024.857,49.805,28.809,26.367,48.828,83.008
1644358024.861,45.410,28.320,28.809,49.316,5.371
1644358024.865,28.809,27.344,30.273,41.016,36.621
1644358024.869,35.156,28.320,29.297,37.598,31.738
1644358024.886,44.922,29.785,28.320,42.969,-5.859
1644358024.890,31.250,25.879,30.273,37.598,24.902
1644358024.894,14.160,23.926,32.715,29.297,34.180
1644358024.898,10.254,24.414,30.762,24.902,36.133
1644358024.902,20.508,24.414,28.320,25.879,16.113
1644358024.906,24.414,26.855,29.297,26.855,10.742
1644358024.910,3.418,25.879,28.320,20.996,46.875
1644358024.913,5.859,24.902,28.320,13.672,10.742
1644358024.917,35.156,27.832,27.832,25.391,-3.418
1644358024.921,40.039,32.227,26.855,34.668,22.949
1644358024.925,22.949,32.715,27.832,30.762,35.645
1644358024.929,8.789,33.691,27.832,29.785,-10.254
1644358024.947,9.766,32.715,29.297,28.320,35.156
1644358024.951,15.625,30.273,29.785,29.297,96.191
1644358024.955,24.414,32.715,27.832,30.273,30.273
1644358024.959,11.230,33.691,30.273,22.949,22.461
1644358024.963,7.812,31.738,32.715,22.461,6.836
1644358024.967,30.762,28.809,30.762,30.762,4.883
1644358024.971,22.949,30.762,28.809,27.832,41.992
1644358024.974,7.812,33.203,33.691,23.438,30.273
1644358024.978,23.438,32.227,35.645,24.902,-2.441
1644358024.982,37.598,33.203,33.203,27.344,-12.695
1644358024.986,31.738,31.738,32.227,30.273,1.465
1644358024.990,16.602,30.273,31.738,24.902,29.297
1644358024.991,17.578,33.691,29.297,18.555,13.184
1644358024.995,32.227,35.156,29.785,23.926,5.371
1644358024.999,33.203,35.645,27.344,29.297,49.316
1644358025.003,19.043,35.645,23.926,21.484,83.008
1644358025.007,14.648,37.109,26.367,16.113,27.832
1644358025.011,22.949,36.621,28.809,24.902,-44.434
1644358025.015,31.738,33.203,25.391,27.344,-49.316
1644358025.018,28.809,33.691,26.367,19.531,10.254
1644358025.022,16.602,33.203,28.320,13.672,23.926
1644358025.026,7.812,34.180,26.855,16.113,25.391
1644358025.030,11.230,35.156,24.414,25.879,49.805
1644358025.034,22.949,31.250,26.855,32.227,64.941
1644358025.051,4.395,31.738,27.832,26.367,51.758
1644358025.055,-12.695,32.715,28.320,17.090,32.715
1644358025.059,34.180,31.738,28.320,27.344,69.824
1644358025.063,44.922,33.203,26.367,36.133,60.547
1644358025.067,19.531,34.668,27.832,28.809,28.320
1644358025.071,15.137,35.156,30.762,27.832,40.039
1644358025.075,22.949,32.227,29.785,30.273,48.828
1644358025.078,32.227,30.762,28.320,36.133,46.875
1644358025.082,34.180,34.668,29.297,34.180,1.953
1644358025.086,25.391,38.086,28.320,18.066,-13.184
1644358025.090,25.879,38.086,25.879,17.578,41.016
1644358025.094,43.457,37.598,24.414,25.391,47.363
1644358025.112,43.457,37.598,22.949,19.531,35.156
1644358025.116,30.762,36.621,22.949,11.719,20.996
1644358025.120,14.160,32.227,23.438,23.926,-1.953
1644358025.124,33.203,31.738,25.391,35.645,35.156
1644358025.128,50.781,31.738,25.879,29.297,26.855
1644358025.132,31.250,33.203,25.391,21.484,60.059
1644358025.136,21.973,35.156,23.926,19.531,76.172
1644358025.139,33.691,30.273,25.879,24.902,19.531
1644358025.143,45.898,30.762,26.855,30.273,32.715
1644358025.147,28.320,33.203,24.902,20.020,51.758
1644358025.151,9.766,31.738,25.391,17.090,43.457
1644358025.155,22.461,32.227,23.438,24.414,32.227
1644358025.117,38.086,33.691,21.484,28.320,40.039
1644358025.121,40.527,31.250,23.438,26.855,-4.395
1644358025.125,21.484,31.250,23.926,15.625,-34.668
1644358025.129,22.461,33.691,24.414,12.207,-11.230
1644358025.133,43.457,29.297,25.391,20.996,-44.434
1644358025.137,40.527,27.344,26.367,24.414,-35.156
1644358025.141,28.809,29.785,25.879,20.508,22.949
1644358025.144,25.391,29.297,24.414,20.996,19.531
1644358025.148,26.855,29.785,22.461,23.926,3.906
1644358025.152,26.367,29.297,20.996,25.391,37.598
1644358025.156,15.137,28.320,22.949,24.902,53.223
1644358025.160,14.648,30.762,25.391,24.414,31.250
1644358025.157,21.484,29.297,27.344,27.832,66.406
1644358025.161,21.973,23.438,30.273,30.273,35.156
1644358025.165,8.301,22.461,33.203,27.344,48.340
1644358025.169,-10.742,25.879,30.273,19.531,95.215
1644358025.173,1.953,23.926,28.809,20.508,52.734
1644358025.177,25.391,23.438,28.320,27.344,60.547
1644358025.181,23.438,26.367,27.344,27.832,56.641
1644358025.184,5.371,25.879,25.879,16.602,50.781
1644358025.188,4.395,24.902,25.879,11.719,28.809
1644358025.192,24.414,28.320,26.855,24.414,-14.648
1644358025.196,33.691,27.344,27.344,31.738,12.207
1644358025.200,17.090,24.902,26.367,29.297,43.945
1644358025.201,10.254,28.809,26.367,26.367,41.016
1644358025.205,28.809,31.250,26.855,34.668,22.949
1644358025.209,39.551,29.785,25.391,32.227,32.227
1644358025.213,29.297,31.738,25.391,26.367,63.477
1644358025.217,20.996,32.715,25.879,25.879,36.621
1644358025.221,25.879,29.297,26.855,28.809,-2.930
1644358025.225,35.645,28.320,26.367,37.109,54.688
1644358025.228,28.809,29.297,22.949,29.785,78.613
1644358025.232,11.230,27.832,21.973,23.926,33.691
1644358025.236,27.832,29.297,22.949,33.203,42.480
1644358025.240,48.828,30.762,24.414,42.969,50.781
1644358025.244,43.457,32.715,24.902,39.551,38.086
1644358025.246,30.273,32.227,23.926,28.320,29.297
1644358025.250,26.855,31.738,24.902,25.391,25.391
1644358025.254,38.574,31.738,24.902,33.691,-21.484
1644358025.258,41.016,30.762,24.902,37.109,-38.086
1644358025.262,24.414,32.227,26.367,30.762,-5.371
1644358025.266,17.578,30.273,24.902,24.902,45.898
1644358025.270,26.855,27.344,23.926,21.973,56.641
1644358025.273,27.344,25.391,24.414,23.438,83.008
1644358025.277,15.137,26.855,24.414,21.484,49.805
1644358025.281,10.254,30.273,23.926,17.578,10.254
1644358025.285,20.996,29.785,23.926,19.043,67.383
1644358025.289,25.879,29.297,23.438,17.090,23.438
1644358025.308,24.902,32.715,22.949,14.160,33.203
1644358025.312,15.625,28.809,25.879,13.184,33.691
1644358025.316,12.695,23.926,23.926,15.137,17.578
1644358025.320,20.508,25.391,21.973,18.066,27.344
1644358025.324,19.043,28.320,21.973,15.137,25.879
1644358025.328,9.277,30.273,23.438,12.695,11.230
1644358025.332,12.695,30.273,24.902,10.254,15.625
1644358025.335,31.250,30.273,23.926,11.719,-25.879
1644358025.339,42.969,29.785,26.367,19.043,-62.500
1644358025.343,25.391,28.320,29.297,17.578,-42.480
1644358025.347,7.324,26.367,29.297,12.207,0.488
1644358025.351,23.438,28.320,28.320,19.531,-21.973
1644358025.366,34.668,30.762,26.367,27.832,-6.348
1644358025.370,15.625,28.320,28.320,22.461,36.621
1644358025.374,4.395,31.250,26.855,11.230,-8.301
1644358025.378,17.090,31.738,26.367,18.555,20.996
1644358025.382,30.762,29.785,26.367,32.227,68.848
1644358025.386,28.320,32.715,28.320,26.367,33.203
1644358025.390,10.742,31.250,30.273,16.602,-37.598
1644358025.393,11.719,29.297,27.344,18.555,-10.254
1644358025.397,27.832,30.273,27.344,22.949,51.270
1644358025.401,26.367,30.762,30.762,20.020,50.781
1644358025.405,14.648,32.715,28.320,16.602,-18.066
1644358025.409,11.230,31.738,27.832,19.531,11.719
1644358025.411,16.602,30.762,30.273,27.832,51.758
1644358025.415,22.461,30.762,30.273,33.203,0.488
1644358025.419,13.672,30.762,30.273,26.367,-36.621
1644358025.423,6.348,30.762,30.762,22.461,-27.344
1644358025.427,27.832,30.762,29.785,33.203,19.043
1644358025.431,42.480,32.227,29.785,38.086,27.344
1644358025.435,28.809,33.203,30.762,29.297,-28.809
1644358025.438,16.113,32.715,29.785,23.926,-17.090
1644358025.442,26.367,32.227,27.832,27.832,55.664
1644358025.446,34.668,30.762,27.344,25.879,76.660
1644358025.450,30.273,32.227,26.367,27.832,14.648
1644358025.454,17.578,31.738,25.879,24.902,21.484
1644358025.486,16.602,28.320,29.785,18.555,4.883
1644358025.490,35.645,29.297,27.344,26.367,35.156
1644358025.494,40.039,27.832,24.902,33.691,100.098
1644358025.498,27.832,30.762,24.414,30.273,46.387
1644358025.502,26.367,34.668,23.438,26.855,42.480
1644358025.506,38.574,28.320,22.949,35.156,24.414
1644358025.510,44.434,24.902,22.461,40.039,-20.996
1644358025.513,28.809,28.809,23.926,31.250,40.039
1644358025.517,21.973,26.855,25.879,25.879,32.715
1644358025.521,38.086,26.367,24.902,31.738,2.441
1644358025.525,44.434,31.738,24.414,39.551,19.531
1644358025.529,33.203,33.203,26.367,32.227,54.199
1644358025.490,18.066,32.715,27.344,20.996,64.941
1644358025.494,21.484,32.227,26.367,23.438,15.625
1644358025.498,36.133,32.227,26.367,35.156,33.691
1644358025.502,30.273,31.738,27.832,32.715,45.410
1644358025.506,10.254,28.320,30.273,22.461,17.578
1644358025.510,13.672,28.320,30.273,28.320,42.969
1644358025.514,22.949,28.320,28.320,41.016,58.105
1644358025.517,20.020,27.832,25.391,34.180,20.020
1644358025.521,10.254,29.297,27.832,19.531,17.578
1644358025.525,3.906,29.785,29.785,13.184,12.207
1644358025.529,20.508,30.762,29.297,19.043,-2.930
1644358025.533,28.320,30.762,28.320,27.344,12.207
1644358025.531,19.531,32.227,27.344,24.414,-4.395
1644358025.535,12.207,33.691,25.391,18.066,-24.902
1644358025.539,14.160,30.762,23.926,17.578,46.387
1644358025.543,24.902,28.809,25.879,25.879,103.027
1644358025.547,24.902,29.785,25.879,25.879,38.574
1644358025.551,9.766,31.250,26.855,19.043,28.320
1644358025.555,9.277,29.785,28.809,24.902,11.719
1644358025.558,24.902,28.320,28.320,27.832,-42.969
1644358025.562,29.297,28.320,28.320,20.508,-24.414
1644358025.566,16.113,28.809,30.273,17.578,46.387
1644358025.570,12.695,29.785,28.809,20.020,58.594
1644358025.574,35.156,29.297,23.438,23.926,25.879
1644358025.575,45.410,27.344,26.855,34.180,53.223
1644358025.579,17.090,26.855,33.691,28.320,83.008
1644358025.583,5.859,26.855,32.227,12.695,24.414
1644358025.587,21.484,27.344,28.809,18.066,-20.020
1644358025.591,24.414,28.809,26.367,25.879,1.465
1644358025.595,18.066,26.855,26.855,20.508,28.809
1644358025.599,14.648,27.832,27.344,15.625,18.555
1644358025.602,29.297,31.250,24.902,22.461,20.996
1644358025.606,48.340,31.250,23.926,32.227,45.898
1644358025.610,42.969,33.691,23.438,32.715,27.344
1644358025.614,24.902,34.180,24.414,29.297,12.207
1644358025.618,30.273,30.762,26.855,37.598,63.965
1644358025.651,40.527,27.344,23.438,42.969,44.922
1644358025.655,45.410,28.320,19.531,36.133,-2.930
1644358025.659,32.227,36.133,22.461,27.832,24.414
1644358025.663,15.625,36.133,26.367,27.832,15.137
1644358025.667,30.273,34.668,24.902,37.598,-47.852
1644358025.671,28.320,31.738,24.902,40.527,26.855
1644358025.675,15.137,30.273,27.344,30.762,59.082
1644358025.678,18.066,32.227,25.879,22.949,15.625
1644358025.682,25.391,33.203,27.832,29.785,25.879
1644358025.686,35.645,33.203,28.320,35.645,41.016
1644358025.690,29.297,35.645,25.391,24.902,11.230
1644358025.694,13.672,38.086,23.926,17.578,8.789
1644358025.696,21.973,38.574,22.461,23.438,14.160
1644358025.700,35.645,39.551,22.461,28.320,50.293
1644358025.704,30.273,36.621,23.438,22.949,26.855
1644358025.708,25.391,36.621,21.484,14.160,-21.484
1644358025.712,25.879,36.621,21.973,18.066,13.672
1644358025.716,35.156,33.203,23.926,23.438,30.762
1644358025.720,41.504,32.715,24.414,26.367,29.785
1644358025.723,24.414,31.738,27.344,23.438,27.832
1644358025.727,17.578,30.762,28.320,18.066,53.711
1644358025.731,28.809,28.320,27.344,21.484,108.887
1644358025.735,33.203,26.855,27.344,23.438,75.684
1644358025.739,23.438,28.320,25.391,22.461,23.926
1644358025.726,9.277,28.320,25.879,20.508,-0.488
1644358025.730,21.484,27.344,27.344,15.137,-29.785
1644358025.734,38.574,26.855,26.855,13.672,6.836
1644358025.738,31.250,27.344,24.902,19.043,5.371
1644358025.742,15.625,25.391,25.879,20.020,4.883
1644358025.746,20.996,26.367,26.855,20.020,61.523
1644358025.750,40.527,29.785,21.973,23.438,41.504
1644358025.753,40.039,30.762,24.414,24.414,16.602
1644358025.757,26.855,34.180,27.344,19.043,-0.977
1644358025.761,22.949,34.668,23.438,18.555,27.344
1644358025.765,29.785,33.691,23.926,31.738,73.242
1644358025.769,35.645,33.691,25.879,33.691,30.273
1644358025.771,22.461,30.762,25.391,22.461,14.160
1644358025.775,12.207,29.297,23.926,20.508,31.250
1644358025.779,25.879,29.297,23.926,29.297,29.297
1644358025.783,37.109,27.344,23.438,35.645,46.875
1644358025.787,26.367,27.344,24.414,30.273,37.109
1644358025.791,12.207,27.832,24.414,21.484,9.766
1644358025.795,25.391,28.320,22.949,28.320,18.555
1644358025.798,41.016,30.273,21.973,38.086,17.090
1644358025.802,27.344,33.203,21.484,27.832,48.828
1644358025.806,15.625,37.598,20.508,11.230,42.969
1644358025.810,21.484,34.668,19.531,12.695,5.859
1644358025.814,30.273,30.762,17.578,23.926,43.945
1644358025.861,28.809,33.203,18.555,19.043,54.688
1644358025.865,13.184,32.227,21.973,9.277,13.672
1644358025.869,9.766,28.809,20.996,10.254,27.344
1644358025.873,27.832,28.809,20.996,20.996,42.969
1644358025.877,34.668,24.902,25.391,20.996,49.805
1644358025.881,20.020,24.414,25.391,15.625,63.477
1644358025.885,14.648,25.879,23.926,17.090,91.797
1644358025.888,22.461,24.902,26.855,26.367,84.473
1644358025.892,30.273,28.320,27.832,28.809,23.926
1644358025.896,22.461,30.273,27.344,24.414,4.395
1644358025.900,9.766,27.832,27.832,23.438,14.160
1644358025.904,20.996,26.855,26.855,22.461,39.062
1644358025.865,30.273,24.902,24.902,26.367,71.777
1644358025.869,27.344,25.879,24.902,27.832,27.344
1644358025.873,14.160,25.879,27.832,19.531,-18.555
1644358025.877,16.113,23.926,30.762,11.230,4.395
1644358025.881,35.645,25.879,32.227,29.297,6.836
1644358025.885,33.691,26.367,31.738,47.363,21.973
1644358025.889,20.996,28.320,31.738,41.992,39.551
1644358025.892,22.461,29.785,30.762,37.598,23.438
1644358025.896,33.691,27.344,31.250,36.133,12.207
1644358025.900,40.039,25.391,35.156,41.016,61.035
1644358025.904,34.180,27.832,38.086,53.711,92.773
1644358025.908,25.879,30.273,39.062,53.223,73.730
1644358025.906,38.086,25.879,37.598,54.688,50.781
1644358025.910,42.969,25.879,32.715,52.734,91.797
1644358025.914,32.715,30.273,28.809,45.410,57.129
1644358025.918,25.391,30.762,31.250,37.109,21.484
1644358025.922,30.762,31.738,27.344,36.133,87.402
1644358025.926,47.852,34.180,23.438,43.457,86.426
1644358025.930,46.875,33.691,26.367,49.805,84.473
1644358025.933,29.297,36.133,27.344,35.645,88.867
1644358025.937,36.133,36.621,26.855,27.344,103.027
1644358025.941,52.734,32.227,27.832,43.457,118.652
1644358025.945,41.504,31.738,27.832,46.875,113.770
1644358025.949,27.832,33.691,25.879,40.527,57.129
1644358025.951,27.344,34.668,27.344,38.574,57.129
1644358025.955,40.527,32.227,27.344,40.039,95.215
1644358025.959,42.480,31.738,27.344,35.645,74.707
1644358025.963,24.902,31.738,30.273,26.367,88.379
1644358025.967,15.625,31.738,29.785,22.949,102.539
1644358025.971,28.320,34.180,26.367,26.855,92.285
1644358025.975,41.016,33.691,23.926,31.738,113.281
1644358025.978,37.598,36.621,24.902,21.973,98.145
1644358025.982,27.344,35.156,27.344,17.090,79.102
1644358025.986,28.809,32.715,31.250,24.902,126.465
1644358025.990,37.598,33.203,28.320,27.344,156.738
1644358025.994,32.715,31.738,26.367,24.902,137.207
1644358026.041,14.648,32.227,28.320,17.090,121.582
1644358026.045,14.160,30.273,24.902,16.113,122.559
1644358026.049,33.203,28.809,21.973,30.762,139.160
1644358026.053,37.109,30.273,22.461,33.203,185.059
1644358026.057,27.832,28.320,22.949,20.508,177.246
1644358026.061,20.020,28.320,21.484,24.414,125.488
1644358026.065,22.461,29.297,20.508,30.273,141.113
1644358026.068,32.715,28.809,22.461,29.297,199.707
1644358026.072,31.738,29.785,23.438,32.227,211.914
1644358026.076,18.555,29.297,26.855,31.250,164.062
1644358026.080,24.902,28.809,27.344,32.227,162.109
1644358026.084,36.621,30.273,24.902,40.527,225.098
1644358026.045,32.227,31.250,25.391,39.062,232.422
1644358026.049,20.508,31.738,26.855,29.297,197.266
1644358026.053,26.855,31.738,26.855,32.715,215.820
1644358026.057,41.504,33.691,22.461,35.156,243.652
1644358026.061,32.715,34.180,20.508,24.902,245.605
1644358026.065,19.043,33.691,22.461,13.672,205.566
1644358026.069,18.555,33.691,21.973,10.742,176.758
1644358026.072,37.598,33.203,20.996,20.996,193.359
1644358026.076,41.992,33.203,24.414,25.391,216.309
1644358026.080,20.996,35.156,28.320,22.461,183.105
1644358026.084,10.254,36.133,27.832,19.043,147.949
1644358026.088,18.555,34.668,26.367,19.531,150.879
1644358026.191,28.809,35.156,28.809,25.879,127.441
1644358026.195,17.090,44.434,31.250,19.043,87.891
1644358026.199,1.953,46.387,32.227,10.254,68.359
1644358026.203,4.395,36.133,32.227,6.348,62.012
1644358026.207,11.230,38.086,27.832,3.906,60.547
1644358026.211,4.395,42.969,28.320,-7.324,34.180
1644358026.215,-26.367,48.340,28.320,-40.527,-60.059
1644358026.218,-29.297,53.711,26.367,-43.457,-101.562
1644358026.222,-24.414,60.547,26.855,-37.598,-66.895
1644358026.226,-41.992,69.336,20.996,-57.129,-49.805
1644358026.230,-77.148,72.266,16.113,-74.707,-87.402
1644358026.234,-101.074,83.984,18.066,-92.773,-142.090
1644358026.194,-116.211,106.934,15.625,-123.535,-146.973
1644358026.198,-138.184,124.023,0.977,-151.855,-153.320
1644358026.202,-171.387,133.301,-12.207,-179.688,-164.551
1644358026.206,-207.031,128.418,-11.230,-208.496,-167.969
1644358026.210,-226.562,130.371,-3.906,-231.934,-202.637
1644358026.214,-238.281,125.977,10.254,-258.301,-188.477
1644358026.218,-249.023,115.723,27.832,-265.625,-172.852
1644358026.221,-260.742,111.816,32.227,-274.414,-182.129
1644358026.225,-248.047,103.516,28.809,-272.461,-132.812
1644358026.229,-227.051,99.609,29.785,-254.395,-161.133
1644358026.233,-224.121,100.098,33.203,-242.676,-182.129
1644358026.237,-220.703,96.680,37.109,-232.422,-143.555
1644358026.198,-201.172,93.262,41.504,-219.238,-178.223
1644358026.202,-171.875,90.820,41.504,-196.289,-178.711
1644358026.206,-150.391,84.473,41.992,-161.133,-183.594
1644358026.210,-146.973,81.543,37.598,-144.043,-133.301
1644358026.214,-140.137,78.125,33.203,-141.602,-95.703
1644358026.218,-103.027,70.801,33.203,-101.562,-152.832
1644358026.222,-66.895,67.383,31.250,-59.570,-113.281
1644358026.225,-63.965,61.523,31.250,-49.805,-52.246
1644358026.229,-51.270,57.129,27.344,-28.809,-26.367
1644358026.233,-7.812,52.734,21.484,2.930,-36.621
1644358026.237,15.137,46.387,18.555,25.391,-46.875
1644358026.241,21.973,39.551,17.090,41.016,-70.801
1644358026.251,30.273,33.203,14.160,45.410,-103.027
1644358026.255,49.805,26.367,12.695,62.988,-105.957
1644358026.259,81.055,18.555,13.184,85.938,-52.734
1644358026.263,93.750,13.672,13.672,97.168,-20.996
1644358026.267,91.309,8.789,17.578,104.004,-14.160
1644358026.271,104.492,3.906,20.020,113.281,-10.742
1644358026.275,127.930,0.977,20.020,137.207,-1.465
1644358026.278,136.719,-2.930,20.996,147.949,13.672
1644358026.282,132.324,-3.418,20.508,133.789,-21.484
1644358026.286,128.418,-5.371,20.020,130.859,-18.555
1644358026.290,139.648,-10.742,21.484,147.949,21.973
1644358026.294,147.461,-10.742,23.926,158.691,23.926
1644358026.281,135.254,-13.672,25.391,152.832,-27.344
1644358026.285,125.977,-17.578,25.879,154.297,11.719
1644358026.289,136.230,-19.043,26.855,160.645,36.621
1644358026.293,153.320,-20.508,28.809,160.645,-15.137
1644358026.297,151.367,-18.066,30.273,156.250,-42.969
1644358026.301,127.930,-18.066,31.250,145.996,-14.160
1644358026.305,130.859,-16.602,29.785,138.672,25.391
1644358026.308,145.996,-13.184,30.273,143.555,28.809
1644358026.312,144.043,-11.719,32.227,142.090,15.625
1644358026.316,125.977,-11.230,28.809,127.930,62.500
1644358026.320,120.605,-11.230,30.273,125.488,57.617
1644358026.324,130.859,-7.812,31.250,130.859,43.945
1644358026.327,132.812,-4.395,29.785,127.930,93.262
1644358026.331,118.164,-4.395,30.273,117.188,99.121
1644358026.335,105.469,-2.930,31.738,110.840,50.781
1644358026.339,109.863,-0.488,32.715,112.305,-1.465
1644358026.343,111.328,0.977,30.762,110.352,-26.855
1644358026.347,98.145,0.977,27.832,102.051,-18.066
1644358026.351,76.660,2.930,30.273,84.961,-20.996
1644358026.354,82.520,6.836,28.809,77.148,-23.438
1644358026.358,97.168,5.371,23.438,85.449,47.363
1644358026.362,89.844,6.348,25.879,83.984,80.078
1644358026.366,72.266,9.277,28.809,69.824,1.465
1644358026.370,67.383,9.277,30.762,60.059,-34.180
1644358026.371,78.125,6.836,32.227,62.988,27.832
1644358026.375,81.543,7.324,30.762,62.500,107.422
1644358026.379,66.406,13.184,28.809,51.758,24.414
1644358026.383,55.176,15.137,26.855,50.293,-45.898
1644358026.387,71.289,16.113,26.855,54.688,4.395
1644358026.391,85.938,19.531,28.809,58.594,6.348
1644358026.395,70.312,20.508,30.762,57.129,12.695
1644358026.398,47.852,21.973,33.691,49.316,-7.324
1644358026.402,56.152,21.973,32.227,56.152,8.789
1644358026.406,69.336,21.973,31.738,65.430,-0.488
1644358026.410,55.176,21.973,31.738,57.617,-35.645
1644358026.414,42.969,21.484,31.738,51.758,-10.742
1644358026.446,53.711,20.508,32.227,52.734,9.766
1644358026.450,68.848,23.438,28.320,51.758,-5.371
1644358026.454,70.801,26.367,27.344,44.922,-1.465
1644358026.458,52.734,22.949,31.738,39.551,10.254
1644358026.462,48.340,22.461,31.250,41.504,-12.695
1644358026.466,63.965,23.926,31.738,40.527,2.441
1644358026.470,63.477,25.879,33.203,40.527,42.969
1644358026.473,41.016,24.902,31.738,39.551,17.090
1644358026.477,36.621,24.414,28.809,39.551,27.832
1644358026.481,47.852,23.438,29.297,40.527,77.148
1644358026.485,46.387,22.461,30.762,38.574,75.684
1644358026.489,34.668,20.508,32.227,41.016,37.109
1644358026.476,19.043,17.578,33.203,36.621,-10.742
1644358026.480,30.762,18.555,34.180,46.387,46.875
1644358026.484,46.387,21.484,35.156,57.617,81.543
1644358026.488,42.480,22.949,36.621,50.293,67.383
1644358026.492,38.574,24.414,35.645,41.992,91.797
1644358026.496,36.133,24.414,29.785,40.039,36.621
1644358026.500,46.387,24.414,25.391,43.457,-2.930
1644358026.503,47.363,24.414,23.926,39.551,40.039
1644358026.507,25.879,25.391,23.926,26.855,31.738
1644358026.511,25.391,23.926,23.926,20.996,-22.949
1644358026.515,43.457,24.902,21.973,28.809,-17.090
1644358026.519,42.480,26.367,21.484,35.645,-0.488
1644358026.596,32.715,26.367,23.926,30.762,17.090
1644358026.600,30.273,28.320,28.809,23.926,54.199
1644358026.604,41.504,27.344,28.320,29.297,-13.184
1644358026.608,53.711,26.855,24.902,42.969,-49.805
1644358026.612,47.852,25.391,24.902,44.922,10.254
1644358026.616,32.227,26.367,26.367,40.527,37.109
1644358026.620,43.457,28.320,23.926,43.457,87.402
1644358026.623,61.523,28.809,23.438,48.828,55.664
1644358026.627,55.664,30.762,27.344,45.898,19.043
1644358026.631,35.156,32.227,27.344,30.273,62.988
1644358026.635,33.691,30.273,23.926,23.438,51.270
1644358026.639,47.852,30.762,24.414,34.180,22.461
1644358026.601,37.109,29.297,26.855,39.551,-23.926
1644358026.605,18.555,27.344,29.785,34.180,2.441
1644358026.609,20.996,30.273,30.273,34.180,36.133
1644358026.613,37.598,29.785,27.344,39.062,65.430
1644358026.617,41.992,28.320,26.855,34.668,36.133
1644358026.621,28.320,28.809,26.855,26.855,13.184
1644358026.625,16.602,28.809,26.855,24.414,23.926
1644358026.628,29.297,27.344,25.879,25.391,10.742
1644358026.632,34.668,29.297,22.949,26.855,49.316
1644358026.636,13.672,29.297,20.996,15.625,34.180
1644358026.640,0.488,28.320,21.484,9.766,-34.180
1644358026.644,7.812,31.250,22.461,11.230,-30.762
1644358026.604,19.531,32.227,23.926,18.066,27.832
1644358026.608,21.484,29.785,23.926,23.926,17.578
1644358026.612,5.859,26.855,22.461,22.461,16.602
1644358026.616,5.859,26.855,24.414,25.879,25.391
1644358026.620,22.949,27.832,23.926,31.738,13.184
1644358026.624,23.926,28.809,24.414,35.645,-24.902
1644358026.628,11.719,29.297,26.855,30.273,-39.062
1644358026.631,8.789,31.738,26.367,31.250,-34.180
1644358026.635,24.414,33.691,25.879,39.062,-21.973
1644358026.639,33.691,34.180,24.902,33.203,14.160
1644358026.643,22.949,34.668,24.902,22.949,48.340
1644358026.647,15.137,32.227,26.367,16.602,62.012
1644358026.655,24.414,33.203,27.344,14.160,17.090
1644358026.659,31.738,30.762,29.297,14.648,-10.254
1644358026.663,23.926,29.297,28.809,10.742,-0.977
1644358026.667,5.859,30.273,28.320,0.488,21.973
1644358026.671,10.254,28.809,30.273,-3.418,60.547
1644358026.675,30.273,29.785,27.832,2.930,70.801
1644358026.679,33.691,32.227,25.391,15.625,39.551
1644358026.682,19.043,29.297,26.367,13.184,29.297
1644358026.686,13.672,25.879,25.879,6.836,15.137
1644358026.690,20.020,27.344,24.902,17.578,56.641
1644358026.694,24.902,26.367,25.879,24.414,99.609
1644358026.698,17.578,26.367,27.832,17.578,83.008
1644358026.701,2.441,28.809,26.367,8.301,81.543
1644358026.705,4.395,26.855,23.926,18.066,64.453
1644358026.709,12.695,24.902,25.879,26.855,61.035
1644358026.713,1.953,25.879,26.367,19.043,62.012
1644358026.717,-10.254,24.414,26.855,16.113,19.043
1644358026.721,6.836,23.438,27.832,20.996,54.199
1644358026.725,26.855,26.367,27.344,31.738,39.551
1644358026.728,26.855,28.809,28.809,32.227,5.859
1644358026.732,15.137,29.297,27.344,21.973,33.203
1644358026.736,26.367,28.320,23.926,26.367,-0.488
1644358026.740,47.852,32.715,25.391,32.715,8.789
1644358026.744,44.922,34.180,27.344,33.691,62.012
1644358026.777,31.738,34.180,28.809,34.180,64.453
1644358026.781,36.133,33.203,26.855,33.691,15.137
1644358026.785,53.223,32.715,25.391,40.039,-13.672
1644358026.789,62.012,34.668,22.949,46.875,29.785
1644358026.793,41.992,31.250,20.508,42.480,65.918
1644358026.797,28.320,30.273,20.508,37.598,60.547
1644358026.801,41.504,31.738,21.484,39.551,38.086
1644358026.804,50.293,31.250,23.926,41.016,61.523
1644358026.808,41.016,30.273,24.414,42.480,94.727
1644358026.812,26.855,30.273,24.414,38.086,33.691
1644358026.816,26.367,29.297,22.949,30.762,53.711
1644358026.820,39.062,28.320,22.949,36.133,94.238
1644358026.823,38.086,29.297,25.391,41.992,19.043
1644358026.827,19.531,30.762,25.391,33.203,-7.812
1644358026.831,23.438,28.809,23.438,26.367,24.902
1644358026.835,33.203,29.297,21.973,28.809,20.508
1644358026.839,38.086,30.762,23.438,28.320,37.598
1644358026.843,29.297,31.738,24.414,22.949,29.785
1644358026.847,14.160,31.250,24.414,21.484,30.762
1644358026.850,27.832,28.320,25.391,28.320,51.270
1644358026.854,40.039,29.297,27.344,40.527,46.875
1644358026.858,27.832,29.785,28.320,37.109,-7.812
1644358026.862,21.973,28.320,26.855,30.762,40.039
1644358026.866,42.480,26.855,25.391,36.621,112.793
1644358026.941,46.875,23.926,22.461,36.621,89.844
1644358026.945,34.180,25.391,25.879,35.156,48.340
1644358026.949,25.391,28.809,27.344,32.227,69.824
1644358026.953,28.320,26.855,26.367,26.855,112.793
1644358026.957,36.133,25.879,27.344,29.785,115.723
1644358026.961,31.250,26.855,29.297,30.273,92.285
1644358026.965,17.090,29.785,27.344,19.043,58.105
1644358026.968,14.648,30.762,25.879,19.531,49.316
1644358026.972,28.809,31.250,27.832,30.762,75.684
1644358026.976,40.527,35.156,23.926,31.250,100.586
1644358026.980,26.367,34.668,24.414,23.438,80.078
1644358026.984,16.602,31.738,24.414,22.461,96.191
1644358026.944,29.297,30.273,24.414,33.203,81.543
1644358026.948,41.992,31.738,27.832,35.645,101.074
1644358026.952,33.691,33.691,25.391,25.879,116.699
1644358026.956,20.020,32.715,23.438,22.949,62.988
1644358026.960,33.203,33.203,26.367,29.785,82.520
1644358026.964,36.133,33.203,26.367,36.621,125.000
1644358026.968,27.344,29.785,27.344,32.715,89.355
1644358026.971,25.879,30.762,26.855,24.414,60.059
1644358026.975,24.902,33.203,24.414,21.484,63.477
1644358026.979,29.785,30.762,24.902,24.414,111.328
1644358026.983,35.156,30.762,25.879,25.879,115.234
1644358026.987,20.020,32.227,25.879,21.484,63.965
1644358026.948,15.137,32.715,26.367,19.043,67.871
1644358026.952,31.250,32.227,26.855,27.344,71.777
1644358026.956,35.156,30.762,25.391,31.250,82.520
1644358026.960,19.043,31.250,25.391,20.508,46.387
1644358026.964,7.324,31.738,24.902,17.090,11.230
1644358026.968,22.461,29.297,24.414,23.926,31.250
1644358026.972,31.738,31.250,24.902,29.297,16.602
1644358026.975,9.766,34.668,27.344,19.043,5.859
1644358026.979,-2.930,36.133,27.344,4.883,6.836
1644358026.983,12.207,34.180,25.391,9.277,11.230
1644358026.987,27.832,33.203,26.367,15.625,42.969
1644358026.991,20.508,32.715,26.367,13.672,53.223
1644358026.986,-4.883,31.738,26.367,4.395,-9.766
1644358026.990,-3.418,31.250,23.926,8.301,6.836
1644358026.994,18.555,32.715,22.949,15.137,72.754
1644358026.998,27.344,36.133,22.949,12.695,62.500
1644358027.002,9.766,34.668,24.902,10.254,81.055
1644358027.006,4.883,34.180,25.879,8.789,29.297
1644358027.010,25.391,35.645,25.391,21.973,11.230
1644358027.013,30.273,33.203,27.832,28.320,77.637
1644358027.017,23.926,32.227,27.832,18.066,46.387
1644358027.021,24.902,34.180,26.367,13.184,18.066
1644358027.025,35.156,35.645,24.902,21.973,62.500
1644358027.029,41.016,35.645,24.414,32.227,98.145
1644358027.031,32.715,35.156,24.902,30.762,122.070
1644358027.035,24.902,35.156,25.391,28.809,142.578
1644358027.039,28.320,33.203,22.949,28.809,147.461
1644358027.043,35.156,30.273,20.996,31.738,184.082
1644358027.047,30.762,27.832,21.973,34.180,224.121
1644358027.051,18.555,29.297,23.438,32.715,202.637
1644358027.055,25.391,29.297,24.414,39.551,218.262
1644358027.058,42.969,29.297,23.438,48.340,244.629
1644358027.062,45.898,28.320,25.391,41.504,273.438
1644358027.066,26.367,26.855,28.809,36.133,308.594
1644358027.070,17.578,30.273,28.809,41.504,286.621
1644358027.074,34.668,32.715,26.367,48.340,295.410
1644358027.077,44.922,32.715,26.367,44.922,314.453
1644358027.081,34.668,36.621,28.320,36.133,309.082
1644358027.085,20.020,38.574,28.320,33.691,271.973
1644358027.089,26.855,36.133,29.297,32.227,264.160
1644358027.093,35.156,34.180,29.785,34.180,316.895
1644358027.097,28.809,32.715,27.832,38.086,329.102
1644358027.101,18.066,33.691,27.344,23.926,272.949
1644358027.104,26.367,32.715,26.367,19.531,252.441
1644358027.108,35.645,29.297,24.902,36.621,326.172
1644358027.112,35.645,28.320,25.391,38.574,329.590
1644358027.116,32.227,30.273,26.855,32.715,277.832
1644358027.120,26.855,31.250,29.297,32.715,262.695
1644358027.136,36.621,31.250,30.273,41.016,288.086
1644358027.140,45.410,30.762,27.344,45.410,294.434
1644358027.144,31.250,30.273,30.762,36.133,265.137
1644358027.148,16.113,29.785,31.250,27.832,236.816
1644358027.152,24.414,28.320,28.320,22.949,244.629
1644358027.156,37.598,30.273,30.762,30.762,271.973
1644358027.160,26.367,32.715,33.691,28.320,236.816
1644358027.163,6.348,33.691,31.738,16.602,173.828
1644358027.167,19.043,33.691,26.855,25.879,197.754
1644358027.171,38.086,35.156,26.367,32.715,234.375
1644358027.175,30.762,36.621,26.855,27.344,206.543
1644358027.179,17.090,35.645,26.855,17.578,152.832
1644358027.226,26.367,35.156,26.367,15.137,145.508
1644358027.230,40.527,35.156,26.855,19.531,177.734
1644358027.234,45.410,33.203,27.832,21.484,170.410
1644358027.238,34.180,32.715,26.367,17.578,151.855
1644358027.242,23.926,33.691,25.391,18.066,130.371
1644358027.246,37.109,34.180,26.367,22.461,102.539
1644358027.250,45.410,36.621,25.879,22.949,143.555
1644358027.253,35.645,36.621,25.391,14.160,131.836
1644358027.257,22.949,36.133,25.391,9.277,82.520
1644358027.261,30.273,35.645,25.391,16.113,87.891
1644358027.265,40.527,34.180,29.297,20.508,81.055
1644358027.269,27.344,36.133,29.297,17.090,95.703
1644358027.230,6.348,37.109,27.344,12.695,58.594
1644358027.234,18.066,33.203,28.320,12.695,49.805
1644358027.238,33.203,29.785,28.809,15.625,88.379
1644358027.242,26.367,30.762,28.320,14.648,64.453
1644358027.246,13.672,31.738,26.855,7.812,25.391
1644358027.250,8.301,30.273,25.879,5.371,10.254
1644358027.254,21.973,28.809,26.855,13.184,34.668
1644358027.257,22.461,26.367,28.809,16.113,34.668
1644358027.261,9.766,25.391,28.320,12.695,-1.465
1644358027.265,10.742,27.832,27.832,9.766,-19.043
1644358027.269,21.973,27.832,27.344,12.207,15.625
1644358027.273,30.762,27.344,26.855,21.973,25.391
1644358027.272,18.066,28.809,27.832,16.602,-25.391
1644358027.276,9.277,29.785,27.344,10.254,-47.852
1644358027.280,17.578,29.785,26.855,20.508,-8.301
1644358027.284,33.203,31.250,25.391,30.762,16.602
1644358027.288,33.691,33.203,23.926,26.367,-10.254
1644358027.292,21.484,34.180,25.879,17.090,-41.016
1644358027.296,26.367,32.715,22.461,24.414,-38.086
1644358027.299,37.598,29.785,21.484,34.668,19.043
1644358027.303,36.133,29.785,23.926,37.109,45.410
1644358027.307,21.484,32.227,25.879,26.855,-17.090
1644358027.311,16.602,31.250,26.367,11.719,-30.762
1644358027.315,36.133,27.832,26.855,20.020,25.391
1644358027.317,33.691,28.320,26.855,31.738,70.312
1644358027.321,16.602,32.715,25.879,29.297,67.383
1644358027.325,12.695,33.691,23.926,23.926,54.688
1644358027.329,24.902,31.250,24.902,31.738,96.191
1644358027.333,38.086,29.785,25.879,41.504,141.113
1644358027.337,27.344,30.273,25.391,30.762,106.445
1644358027.341,11.719,30.273,24.414,19.531,78.613
1644358027.344,26.367,28.809,22.949,21.973,99.609
1644358027.348,42.480,30.762,22.949,27.344,120.117
1644358027.352,35.156,30.273,24.414,22.949,97.656
1644358027.356,20.020,32.227,20.996,15.625,109.375
1644358027.360,22.461,33.691,21.484,20.508,97.656
1644358027.361,36.133,31.250,22.949,33.691,124.023
1644358027.365,36.133,32.227,22.461,37.109,152.344
1644358027.369,14.648,31.738,24.902,22.461,111.328
1644358027.373,7.324,28.320,25.879,11.719,102.051
1644358027.377,25.879,27.832,24.902,20.020,110.352
1644358027.381,35.156,29.297,24.902,23.438,120.605
1644358027.385,17.090,29.297,23.926,16.113,104.004
1644358027.388,5.371,30.273,22.949,10.742,61.523
1644358027.392,15.625,29.785,22.949,7.812,57.617
1644358027.396,22.461,27.832,21.484,16.602,111.816
1644358027.400,17.090,27.344,22.949,20.020,104.980
1644358027.404,0.488,26.367,23.926,11.230,75.684
1644358027.406,9.277,27.344,23.438,11.230,69.336
1644358027.410,20.996,29.297,23.926,14.648,96.680
1644358027.414,9.766,30.762,22.949,9.277,87.402
1644358027.418,-4.395,31.738,20.996,-2.441,24.414
1644358027.422,2.930,31.250,20.996,0.977,15.137
1644358027.426,23.438,34.180,24.414,13.672,61.523
1644358027.430,22.461,34.180,26.367,10.742,79.102
1644358027.433,4.883,32.227,24.902,2.930,5.859
1644358027.437,0.977,32.227,21.484,3.418,-39.551
1644358027.441,14.160,30.762,17.090,8.301,15.137
1644358027.445,24.902,31.738,15.625,11.719,24.414
1644358027.449,18.555,35.645,15.625,5.371,-0.488
1644358027.451,10.254,35.645,14.648,2.441,-21.484
1644358027.455,20.508,32.227,15.625,10.254,-25.391
1644358027.459,29.785,33.691,17.578,13.672,1.953
1644358027.463,17.578,35.156,20.020,11.230,-2.441
1644358027.467,0.000,33.203,24.414,4.883,-25.391
1644358027.471,12.207,33.203,25.879,10.742,-23.926
1644358027.475,30.273,32.227,22.949,23.438,-4.883
1644358027.478,29.297,31.250,21.973,18.066,-7.812
1644358027.482,13.184,29.297,22.949,14.648,-20.508
1644358027.486,9.277,27.832,22.949,22.461,-11.719
1644358027.490,28.320,29.297,24.902,27.344,-6.348
1644358027.494,36.621,27.832,25.879,31.250,19.043
1644358027.525,20.020,28.320,27.832,30.273,11.719
1644358027.529,10.742,28.320,28.320,31.738,9.766
1644358027.533,23.926,28.809,26.367,36.621,34.668
1644358027.537,29.785,27.832,27.832,35.645,38.086
1644358027.541,-6.348,25.391,29.785,34.180,42.480
1644358027.545,-8.789,24.414,29.297,32.715,10.254
1644358027.549,32.715,25.879,30.273,31.738,-11.230
1644358027.552,35.645,25.879,29.297,33.203,46.387
1644358027.556,22.949,22.461,30.273,36.133,82.520
1644358027.560,11.230,22.949,33.691,35.645,24.414
1644358027.564,28.320,23.926,32.227,41.016,22.949
1644358027.568,38.086,24.902,33.203,55.176,84.961
1644358027.616,35.156,26.855,31.250,51.758,123.535
1644358027.620,29.785,27.344,30.762,40.527,90.332
1644358027.624,20.020,26.367,30.762,43.457,56.152
1644358027.628,29.785,23.926,30.273,48.340,75.195
1644358027.632,35.645,26.367,30.273,48.828,98.145
1644358027.636,21.973,26.367,28.320,38.574,93.750
1644358027.640,15.625,25.879,24.902,32.227,72.266
1644358027.643,25.879,25.391,23.926,39.062,82.031
1644358027.647,35.156,24.414,25.391,44.434,109.863
1644358027.651,27.832,27.344,24.414,40.039,92.773
1644358027.655,14.648,26.367,24.902,30.273,38.574
1644358027.659,23.926,26.367,23.926,28.809,53.223
1644358027.619,37.109,24.902,21.973,32.715,140.625
1644358027.623,33.203,25.391,23.438,28.809,114.746
1644358027.627,19.043,30.273,24.414,18.555,50.781
1644358027.631,28.320,29.785,21.484,22.461,111.328
1644358027.635,44.922,30.762,20.508,34.668,140.137
1644358027.639,38.574,30.762,21.484,31.738,136.719
1644358027.643,26.367,32.715,24.414,26.855,123.047
1644358027.646,19.531,31.738,23.926,29.297,96.680
1644358027.650,35.156,27.832,24.902,31.738,118.164
1644358027.654,46.387,26.367,30.762,33.203,153.809
1644358027.658,23.438,25.391,32.227,26.855,123.047
1644358027.662,1.953,23.926,28.320,18.066,102.539
1644358027.661,12.207,23.438,28.809,18.066,115.723
1644358027.665,25.879,27.344,29.297,20.020,141.113
1644358027.669,22.949,32.227,27.832,20.508,147.461
1644358027.673,11.719,32.715,29.785,16.602,110.840
1644358027.677,16.113,31.250,29.297,19.531,115.723
1644358027.681,41.504,31.250,27.832,26.855,134.766
1644358027.685,42.969,32.227,26.855,28.809,115.234
1644358027.688,19.043,32.715,27.344,23.438,74.707
1644358027.692,19.043,32.715,28.809,24.414,60.547
1644358027.696,31.250,30.762,28.809,32.227,98.633
1644358027.700,33.203,31.738,28.320,32.227,117.676
1644358027.704,20.508,32.715,27.344,25.391,47.852
1644358027.691,16.113,32.227,27.832,19.043,7.812
1644358027.695,30.762,30.762,27.832,20.020,-0.977
1644358027.699,29.297,30.762,26.855,21.973,22.461
1644358027.703,19.043,31.738,26.367,19.043,37.109
1644358027.707,13.672,31.250,27.832,12.695,-17.090
1644358027.711,19.531,31.250,29.297,18.066,-15.625
1644358027.715,31.250,33.203,28.320,29.297,16.113
1644358027.718,17.090,32.715,27.344,23.438,2.441
1644358027.722,6.836,31.738,28.320,17.090,-18.066
1644358027.726,20.020,33.203,25.879,20.508,-11.719
1644358027.730,29.785,34.668,24.902,23.926,5.371
1644358027.734,27.832,34.180,26.855,24.414,-11.230
1644358027.735,10.742,33.203,27.344,8.301,-85.938
1644358027.739,9.277,32.715,23.926,2.441,-104.980
1644358027.743,22.949,31.738,25.391,18.066,-54.688
1644358027.747,18.555,31.738,24.902,20.996,-33.203
1644358027.751,5.859,32.715,23.438,15.625,-60.059
1644358027.755,7.324,31.250,23.438,13.672,-102.539
1644358027.759,19.531,29.785,22.949,20.020,-67.871
1644358027.762,23.438,33.691,24.414,23.926,-16.113
1644358027.766,14.160,35.645,26.855,16.602,-68.848
1644358027.770,4.883,36.621,27.344,19.043,-65.918
1644358027.774,15.137,37.598,25.391,24.414,-12.695
1644358027.778,22.949,34.668,25.879,22.949,-1.465
1644358027.782,13.184,32.227,27.344,18.555,-14.160
1644358027.786,3.418,34.180,25.879,9.766,-33.691
1644358027.790,9.277,34.180,25.391,13.672,-26.855
1644358027.794,20.508,31.738,25.879,19.043,-17.090
1644358027.798,18.555,32.715,28.320,15.625,16.113
1644358027.802,8.301,35.156,28.809,13.672,-16.602
1644358027.806,5.859,33.691,26.855,15.625,-52.734
1644358027.809,24.902,31.250,26.367,20.996,-33.691
1644358027.813,30.273,31.250,24.902,17.090,-17.578
1644358027.817,16.113,33.203,24.902,11.719,-18.066
1644358027.821,9.766,33.691,26.367,11.230,-31.738
1644358027.825,15.137,32.715,24.414,14.648,-21.484
1644358027.826,19.531,34.668,26.855,18.555,-1.953
1644358027.830,12.207,33.203,26.367,12.695,-3.418
1644358027.834,3.418,33.203,23.438,10.254,-49.805
1644358027.838,19.531,37.109,21.973,12.695,-37.109
1644358027.842,35.156,33.691,21.973,22.949,-26.367
1644358027.846,26.367,32.227,23.926,27.832,-34.180
1644358027.850,12.207,35.156,22.461,17.578,-59.570
1644358027.853,24.902,34.668,21.973,12.695,-85.449
1644358027.857,42.480,34.668,22.949,26.367,-7.324
1644358027.861,42.480,33.691,23.438,32.227,33.203
1644358027.865,27.344,34.668,26.855,21.973,-13.672
1644358027.869,27.344,35.645,28.320,22.461,-12.695
1644358027.874,43.945,33.203,25.391,30.762,24.414
1644358027.878,44.922,32.715,25.391,39.062,37.598
1644358027.882,33.203,32.715,27.344,30.273,22.949
1644358027.886,27.344,33.203,27.344,15.625,14.648
1644358027.890,40.039,33.691,24.902,23.438,37.109
1644358027.894,48.828,33.203,24.902,41.016,78.125
1644358027.898,43.457,33.203,26.855,32.227,77.148
1644358027.901,32.227,34.180,29.297,23.926,57.617
1644358027.905,34.180,34.180,30.762,31.250,80.078
1644358027.909,43.457,33.691,30.273,21.484,114.258
1644358027.913,44.434,32.227,28.320,25.391,119.141
1644358027.917,23.438,28.809,29.785,23.438,93.262
1644358027.932,15.625,27.344,29.785,19.531,78.125
1644358027.936,41.016,29.297,27.344,39.062,125.977
1644358027.940,45.410,29.785,29.785,44.922,138.672
1644358027.944,26.855,28.809,26.855,29.297,114.746
1644358027.948,22.949,29.297,25.391,20.508,101.562
1644358027.952,35.645,29.297,28.320,27.344,121.582
1644358027.956,37.109,32.715,29.297,27.832,111.816
1644358027.959,22.461,33.691,27.832,20.508,66.406
1644358027.963,15.137,33.203,25.879,18.066,59.082
1644358027.967,20.508,31.738,23.438,18.066,50.293
1644358027.971,25.879,32.227,21.973,24.902,49.316
1644358027.975,17.090,31.738,24.902,21.973,57.129
1644358028.021,0.977,29.297,26.855,16.602,8.789
1644358028.025,9.766,30.273,24.414,18.066,-14.160
1644358028.029,28.320,31.250,24.902,23.926,56.152
1644358028.033,29.297,30.762,29.297,26.367,53.711
1644358028.037,18.555,32.227,29.297,17.090,-10.254
1644358028.041,19.043,32.227,30.273,20.020,-27.832
1644358028.045,33.203,31.250,29.297,28.320,-12.207
1644358028.048,34.180,29.785,25.391,22.949,11.230
1644358028.052,12.695,28.809,27.832,18.555,-10.742
1644358028.056,6.348,28.809,27.344,16.602,-80.078
1644358028.060,28.320,27.344,25.879,22.461,-83.496
1644358028.064,36.621,26.367,26.855,29.785,-25.391
1644358028.026,23.926,29.785,23.438,24.414,-63.965
1644358028.030,15.137,33.203,24.414,15.625,-104.492
1644358028.034,31.250,32.227,22.949,20.020,-63.965
1644358028.038,44.922,32.715,20.020,31.250,-45.410
1644358028.042,31.250,34.180,21.973,23.926,-57.617
1644358028.046,11.719,34.668,22.949,16.113,-96.680
1644358028.050,17.578,32.715,27.344,21.484,-107.422
1644358028.053,34.668,32.715,28.809,25.879,-61.523
1644358028.057,31.738,34.180,27.832,20.020,-29.785
1644358028.061,19.043,33.691,25.391,12.207,-67.871
1644358028.065,12.207,31.250,22.949,5.371,-101.562
1644358028.069,21.484,29.785,21.973,10.254,-59.570
1644358028.066,29.785,29.785,20.508,15.625,-30.762
1644358028.070,16.113,33.691,22.461,12.207,-69.336
1644358028.074,8.789,32.715,25.391,18.555,-94.727
1644358028.078,28.809,30.762,21.484,24.414,-47.363
1644358028.082,38.574,30.762,18.066,28.320,-37.109
1644358028.086,32.715,33.203,21.973,26.855,-44.434
1644358028.090,28.320,34.668,25.391,24.414,-71.289
1644358028.093,34.180,35.645,22.949,26.855,-87.402
1644358028.097,35.645,36.133,25.879,23.926,-84.961
1644358028.101,23.926,34.668,27.832,11.719,-138.184
1644358028.105,8.789,33.691,24.414,7.812,-170.898
1644358028.109,11.719,32.715,21.484,16.113,-139.648
1644358028.111,23.926,31.738,22.461,22.461,-119.629
1644358028.115,22.461,34.668,22.461,22.461,-146.484
1644358028.119,7.324,37.109,21.484,10.742,-191.895
1644358028.123,4.395,33.203,21.484,5.371,-208.008
1644358028.127,25.879,31.250,21.973,13.672,-211.426
1644358028.131,26.855,33.203,23.438,16.113,-229.492
1644358028.135,6.836,33.691,23.926,11.719,-262.207
1644358028.138,2.930,30.762,25.391,0.977,-329.102
1644358028.142,10.254,32.227,26.367,-4.395,-369.141
1644358028.146,13.184,34.668,24.902,1.953,-326.660
1644358028.150,4.395,33.203,24.414,-2.930,-340.820
1644358028.154,-11.230,31.250,24.414,-12.207,-408.203
1644358028.156,-8.301,30.762,26.855,-8.789,-420.898
1644358028.160,2.930,30.762,28.809,-5.859,-405.273
1644358028.164,-1.465,32.227,26.367,-7.812,-407.227
1644358028.168,-14.648,34.180,26.367,-18.555,-345.215
